#  E (eV)   dos(E)     Int dos(E) EFermi =   17.652 eV
  -9.236  0.2807E-06  0.2807E-08
  -9.226  0.3159E-06  0.5966E-08
  -9.216  0.3553E-06  0.9519E-08
  -9.206  0.3993E-06  0.1351E-07
  -9.196  0.4485E-06  0.1800E-07
  -9.186  0.5035E-06  0.2303E-07
  -9.176  0.5649E-06  0.2868E-07
  -9.166  0.6333E-06  0.3501E-07
  -9.156  0.7096E-06  0.4211E-07
  -9.146  0.7945E-06  0.5005E-07
  -9.136  0.8891E-06  0.5895E-07
  -9.126  0.9942E-06  0.6889E-07
  -9.116  0.1111E-05  0.8000E-07
  -9.106  0.1241E-05  0.9241E-07
  -9.096  0.1385E-05  0.1063E-06
  -9.086  0.1545E-05  0.1217E-06
  -9.076  0.1723E-05  0.1389E-06
  -9.066  0.1919E-05  0.1581E-06
  -9.056  0.2137E-05  0.1795E-06
  -9.046  0.2378E-05  0.2033E-06
  -9.036  0.2644E-05  0.2297E-06
  -9.026  0.2938E-05  0.2591E-06
  -9.016  0.3263E-05  0.2917E-06
  -9.006  0.3622E-05  0.3280E-06
  -8.996  0.4018E-05  0.3681E-06
  -8.986  0.4454E-05  0.4127E-06
  -8.976  0.4934E-05  0.4620E-06
  -8.966  0.5463E-05  0.5166E-06
  -8.956  0.6044E-05  0.5771E-06
  -8.946  0.6684E-05  0.6439E-06
  -8.936  0.7386E-05  0.7178E-06
  -8.926  0.8157E-05  0.7993E-06
  -8.916  0.9003E-05  0.8894E-06
  -8.906  0.9931E-05  0.9887E-06
  -8.896  0.1095E-04  0.1098E-05
  -8.886  0.1206E-04  0.1219E-05
  -8.876  0.1328E-04  0.1352E-05
  -8.866  0.1461E-04  0.1498E-05
  -8.856  0.1607E-04  0.1658E-05
  -8.846  0.1766E-04  0.1835E-05
  -8.836  0.1939E-04  0.2029E-05
  -8.826  0.2128E-04  0.2242E-05
  -8.816  0.2335E-04  0.2475E-05
  -8.806  0.2559E-04  0.2731E-05
  -8.796  0.2804E-04  0.3011E-05
  -8.786  0.3070E-04  0.3318E-05
  -8.776  0.3359E-04  0.3654E-05
  -8.766  0.3674E-04  0.4022E-05
  -8.756  0.4015E-04  0.4423E-05
  -8.746  0.4386E-04  0.4862E-05
  -8.736  0.4787E-04  0.5340E-05
  -8.726  0.5222E-04  0.5863E-05
  -8.716  0.5694E-04  0.6432E-05
  -8.706  0.6204E-04  0.7052E-05
  -8.696  0.6756E-04  0.7728E-05
  -8.686  0.7352E-04  0.8463E-05
  -8.676  0.7996E-04  0.9263E-05
  -8.666  0.8691E-04  0.1013E-04
  -8.656  0.9441E-04  0.1108E-04
  -8.646  0.1025E-03  0.1210E-04
  -8.636  0.1112E-03  0.1321E-04
  -8.626  0.1206E-03  0.1442E-04
  -8.616  0.1307E-03  0.1573E-04
  -8.606  0.1415E-03  0.1714E-04
  -8.596  0.1532E-03  0.1867E-04
  -8.586  0.1657E-03  0.2033E-04
  -8.576  0.1792E-03  0.2212E-04
  -8.566  0.1936E-03  0.2406E-04
  -8.556  0.2090E-03  0.2615E-04
  -8.546  0.2256E-03  0.2840E-04
  -8.536  0.2433E-03  0.3084E-04
  -8.526  0.2623E-03  0.3346E-04
  -8.516  0.2825E-03  0.3629E-04
  -8.506  0.3042E-03  0.3933E-04
  -8.496  0.3273E-03  0.4260E-04
  -8.486  0.3520E-03  0.4612E-04
  -8.476  0.3783E-03  0.4990E-04
  -8.466  0.4063E-03  0.5397E-04
  -8.456  0.4362E-03  0.5833E-04
  -8.446  0.4680E-03  0.6301E-04
  -8.436  0.5018E-03  0.6803E-04
  -8.426  0.5377E-03  0.7340E-04
  -8.416  0.5759E-03  0.7916E-04
  -8.406  0.6164E-03  0.8533E-04
  -8.396  0.6594E-03  0.9192E-04
  -8.386  0.7050E-03  0.9897E-04
  -8.376  0.7533E-03  0.1065E-03
  -8.366  0.8045E-03  0.1146E-03
  -8.356  0.8586E-03  0.1231E-03
  -8.346  0.9159E-03  0.1323E-03
  -8.336  0.9764E-03  0.1421E-03
  -8.326  0.1040E-02  0.1525E-03
  -8.316  0.1108E-02  0.1635E-03
  -8.306  0.1179E-02  0.1753E-03
  -8.296  0.1254E-02  0.1879E-03
  -8.286  0.1333E-02  0.2012E-03
  -8.276  0.1417E-02  0.2154E-03
  -8.266  0.1504E-02  0.2304E-03
  -8.256  0.1596E-02  0.2464E-03
  -8.246  0.1693E-02  0.2633E-03
  -8.236  0.1795E-02  0.2813E-03
  -8.226  0.1902E-02  0.3003E-03
  -8.216  0.2014E-02  0.3204E-03
  -8.206  0.2132E-02  0.3417E-03
  -8.196  0.2255E-02  0.3643E-03
  -8.186  0.2384E-02  0.3881E-03
  -8.176  0.2519E-02  0.4133E-03
  -8.166  0.2660E-02  0.4399E-03
  -8.156  0.2807E-02  0.4680E-03
  -8.146  0.2961E-02  0.4976E-03
  -8.136  0.3122E-02  0.5288E-03
  -8.126  0.3290E-02  0.5617E-03
  -8.116  0.3465E-02  0.5964E-03
  -8.106  0.3647E-02  0.6328E-03
  -8.096  0.3837E-02  0.6712E-03
  -8.086  0.4035E-02  0.7116E-03
  -8.076  0.4240E-02  0.7540E-03
  -8.066  0.4454E-02  0.7985E-03
  -8.056  0.4676E-02  0.8453E-03
  -8.046  0.4907E-02  0.8943E-03
  -8.036  0.5146E-02  0.9458E-03
  -8.026  0.5394E-02  0.9997E-03
  -8.016  0.5651E-02  0.1056E-02
  -8.006  0.5917E-02  0.1115E-02
  -7.996  0.6193E-02  0.1177E-02
  -7.986  0.6478E-02  0.1242E-02
  -7.976  0.6773E-02  0.1310E-02
  -7.966  0.7078E-02  0.1381E-02
  -7.956  0.7392E-02  0.1455E-02
  -7.946  0.7717E-02  0.1532E-02
  -7.936  0.8052E-02  0.1612E-02
  -7.926  0.8398E-02  0.1696E-02
  -7.916  0.8753E-02  0.1784E-02
  -7.906  0.9120E-02  0.1875E-02
  -7.896  0.9497E-02  0.1970E-02
  -7.886  0.9885E-02  0.2069E-02
  -7.876  0.1028E-01  0.2172E-02
  -7.866  0.1069E-01  0.2279E-02
  -7.856  0.1111E-01  0.2390E-02
  -7.846  0.1155E-01  0.2505E-02
  -7.836  0.1199E-01  0.2625E-02
  -7.826  0.1244E-01  0.2749E-02
  -7.816  0.1291E-01  0.2879E-02
  -7.806  0.1338E-01  0.3012E-02
  -7.796  0.1387E-01  0.3151E-02
  -7.786  0.1437E-01  0.3295E-02
  -7.776  0.1488E-01  0.3444E-02
  -7.766  0.1540E-01  0.3598E-02
  -7.756  0.1593E-01  0.3757E-02
  -7.746  0.1647E-01  0.3922E-02
  -7.736  0.1703E-01  0.4092E-02
  -7.726  0.1759E-01  0.4268E-02
  -7.716  0.1817E-01  0.4449E-02
  -7.706  0.1875E-01  0.4637E-02
  -7.696  0.1935E-01  0.4830E-02
  -7.686  0.1995E-01  0.5030E-02
  -7.676  0.2057E-01  0.5236E-02
  -7.666  0.2120E-01  0.5448E-02
  -7.656  0.2183E-01  0.5666E-02
  -7.646  0.2248E-01  0.5891E-02
  -7.636  0.2313E-01  0.6122E-02
  -7.626  0.2380E-01  0.6360E-02
  -7.616  0.2447E-01  0.6605E-02
  -7.606  0.2515E-01  0.6856E-02
  -7.596  0.2584E-01  0.7115E-02
  -7.586  0.2654E-01  0.7380E-02
  -7.576  0.2725E-01  0.7653E-02
  -7.566  0.2797E-01  0.7932E-02
  -7.556  0.2869E-01  0.8219E-02
  -7.546  0.2942E-01  0.8514E-02
  -7.536  0.3016E-01  0.8815E-02
  -7.526  0.3090E-01  0.9124E-02
  -7.516  0.3166E-01  0.9441E-02
  -7.506  0.3241E-01  0.9765E-02
  -7.496  0.3318E-01  0.1010E-01
  -7.486  0.3395E-01  0.1044E-01
  -7.476  0.3472E-01  0.1078E-01
  -7.466  0.3550E-01  0.1114E-01
  -7.456  0.3629E-01  0.1150E-01
  -7.446  0.3708E-01  0.1187E-01
  -7.436  0.3787E-01  0.1225E-01
  -7.426  0.3867E-01  0.1264E-01
  -7.416  0.3947E-01  0.1303E-01
  -7.406  0.4027E-01  0.1343E-01
  -7.396  0.4108E-01  0.1385E-01
  -7.386  0.4189E-01  0.1426E-01
  -7.376  0.4270E-01  0.1469E-01
  -7.366  0.4351E-01  0.1513E-01
  -7.356  0.4433E-01  0.1557E-01
  -7.346  0.4514E-01  0.1602E-01
  -7.336  0.4596E-01  0.1648E-01
  -7.326  0.4678E-01  0.1695E-01
  -7.316  0.4760E-01  0.1742E-01
  -7.306  0.4842E-01  0.1791E-01
  -7.296  0.4924E-01  0.1840E-01
  -7.286  0.5006E-01  0.1890E-01
  -7.276  0.5088E-01  0.1941E-01
  -7.266  0.5170E-01  0.1993E-01
  -7.256  0.5251E-01  0.2045E-01
  -7.246  0.5333E-01  0.2099E-01
  -7.236  0.5414E-01  0.2153E-01
  -7.226  0.5495E-01  0.2208E-01
  -7.216  0.5576E-01  0.2263E-01
  -7.206  0.5657E-01  0.2320E-01
  -7.196  0.5738E-01  0.2377E-01
  -7.186  0.5818E-01  0.2436E-01
  -7.176  0.5898E-01  0.2495E-01
  -7.166  0.5978E-01  0.2554E-01
  -7.156  0.6057E-01  0.2615E-01
  -7.146  0.6136E-01  0.2676E-01
  -7.136  0.6215E-01  0.2738E-01
  -7.126  0.6293E-01  0.2801E-01
  -7.116  0.6371E-01  0.2865E-01
  -7.106  0.6449E-01  0.2930E-01
  -7.096  0.6526E-01  0.2995E-01
  -7.086  0.6603E-01  0.3061E-01
  -7.076  0.6679E-01  0.3128E-01
  -7.066  0.6755E-01  0.3195E-01
  -7.056  0.6830E-01  0.3263E-01
  -7.046  0.6905E-01  0.3333E-01
  -7.036  0.6980E-01  0.3402E-01
  -7.026  0.7054E-01  0.3473E-01
  -7.016  0.7127E-01  0.3544E-01
  -7.006  0.7200E-01  0.3616E-01
  -6.996  0.7273E-01  0.3689E-01
  -6.986  0.7345E-01  0.3762E-01
  -6.976  0.7416E-01  0.3836E-01
  -6.966  0.7488E-01  0.3911E-01
  -6.956  0.7558E-01  0.3987E-01
  -6.946  0.7628E-01  0.4063E-01
  -6.936  0.7698E-01  0.4140E-01
  -6.926  0.7767E-01  0.4218E-01
  -6.916  0.7835E-01  0.4296E-01
  -6.906  0.7903E-01  0.4375E-01
  -6.896  0.7971E-01  0.4455E-01
  -6.886  0.8038E-01  0.4535E-01
  -6.876  0.8105E-01  0.4616E-01
  -6.866  0.8171E-01  0.4698E-01
  -6.856  0.8236E-01  0.4780E-01
  -6.846  0.8301E-01  0.4863E-01
  -6.836  0.8366E-01  0.4947E-01
  -6.826  0.8430E-01  0.5031E-01
  -6.816  0.8494E-01  0.5116E-01
  -6.806  0.8557E-01  0.5202E-01
  -6.796  0.8620E-01  0.5288E-01
  -6.786  0.8682E-01  0.5375E-01
  -6.776  0.8744E-01  0.5462E-01
  -6.766  0.8805E-01  0.5550E-01
  -6.756  0.8866E-01  0.5639E-01
  -6.746  0.8926E-01  0.5728E-01
  -6.736  0.8986E-01  0.5818E-01
  -6.726  0.9046E-01  0.5909E-01
  -6.716  0.9105E-01  0.6000E-01
  -6.706  0.9163E-01  0.6091E-01
  -6.696  0.9222E-01  0.6184E-01
  -6.686  0.9279E-01  0.6276E-01
  -6.676  0.9337E-01  0.6370E-01
  -6.666  0.9394E-01  0.6464E-01
  -6.656  0.9450E-01  0.6558E-01
  -6.646  0.9507E-01  0.6653E-01
  -6.636  0.9563E-01  0.6749E-01
  -6.626  0.9618E-01  0.6845E-01
  -6.616  0.9673E-01  0.6942E-01
  -6.606  0.9728E-01  0.7039E-01
  -6.596  0.9782E-01  0.7137E-01
  -6.586  0.9836E-01  0.7235E-01
  -6.576  0.9890E-01  0.7334E-01
  -6.566  0.9944E-01  0.7434E-01
  -6.556  0.9997E-01  0.7534E-01
  -6.546  0.1005E+00  0.7634E-01
  -6.536  0.1010E+00  0.7735E-01
  -6.526  0.1015E+00  0.7837E-01
  -6.516  0.1021E+00  0.7939E-01
  -6.506  0.1026E+00  0.8041E-01
  -6.496  0.1031E+00  0.8144E-01
  -6.486  0.1036E+00  0.8248E-01
  -6.476  0.1041E+00  0.8352E-01
  -6.466  0.1046E+00  0.8457E-01
  -6.456  0.1051E+00  0.8562E-01
  -6.446  0.1056E+00  0.8667E-01
  -6.436  0.1061E+00  0.8773E-01
  -6.426  0.1066E+00  0.8880E-01
  -6.416  0.1071E+00  0.8987E-01
  -6.406  0.1076E+00  0.9095E-01
  -6.396  0.1080E+00  0.9203E-01
  -6.386  0.1085E+00  0.9311E-01
  -6.376  0.1090E+00  0.9420E-01
  -6.366  0.1095E+00  0.9530E-01
  -6.356  0.1100E+00  0.9640E-01
  -6.346  0.1104E+00  0.9750E-01
  -6.336  0.1109E+00  0.9861E-01
  -6.326  0.1114E+00  0.9972E-01
  -6.316  0.1118E+00  0.1008E+00
  -6.306  0.1123E+00  0.1020E+00
  -6.296  0.1128E+00  0.1031E+00
  -6.286  0.1132E+00  0.1042E+00
  -6.276  0.1137E+00  0.1054E+00
  -6.266  0.1141E+00  0.1065E+00
  -6.256  0.1146E+00  0.1076E+00
  -6.246  0.1150E+00  0.1088E+00
  -6.236  0.1155E+00  0.1100E+00
  -6.226  0.1159E+00  0.1111E+00
  -6.216  0.1164E+00  0.1123E+00
  -6.206  0.1168E+00  0.1134E+00
  -6.196  0.1173E+00  0.1146E+00
  -6.186  0.1177E+00  0.1158E+00
  -6.176  0.1181E+00  0.1170E+00
  -6.166  0.1186E+00  0.1182E+00
  -6.156  0.1190E+00  0.1194E+00
  -6.146  0.1195E+00  0.1205E+00
  -6.136  0.1199E+00  0.1217E+00
  -6.126  0.1203E+00  0.1229E+00
  -6.116  0.1208E+00  0.1242E+00
  -6.106  0.1212E+00  0.1254E+00
  -6.096  0.1216E+00  0.1266E+00
  -6.086  0.1220E+00  0.1278E+00
  -6.076  0.1225E+00  0.1290E+00
  -6.066  0.1229E+00  0.1303E+00
  -6.056  0.1233E+00  0.1315E+00
  -6.046  0.1237E+00  0.1327E+00
  -6.036  0.1241E+00  0.1340E+00
  -6.026  0.1246E+00  0.1352E+00
  -6.016  0.1250E+00  0.1365E+00
  -6.006  0.1254E+00  0.1377E+00
  -5.996  0.1258E+00  0.1390E+00
  -5.986  0.1262E+00  0.1402E+00
  -5.976  0.1266E+00  0.1415E+00
  -5.966  0.1270E+00  0.1428E+00
  -5.956  0.1274E+00  0.1440E+00
  -5.946  0.1278E+00  0.1453E+00
  -5.936  0.1282E+00  0.1466E+00
  -5.926  0.1286E+00  0.1479E+00
  -5.916  0.1290E+00  0.1492E+00
  -5.906  0.1294E+00  0.1505E+00
  -5.896  0.1298E+00  0.1518E+00
  -5.886  0.1302E+00  0.1531E+00
  -5.876  0.1306E+00  0.1544E+00
  -5.866  0.1310E+00  0.1557E+00
  -5.856  0.1314E+00  0.1570E+00
  -5.846  0.1318E+00  0.1583E+00
  -5.836  0.1322E+00  0.1596E+00
  -5.826  0.1326E+00  0.1610E+00
  -5.816  0.1330E+00  0.1623E+00
  -5.806  0.1334E+00  0.1636E+00
  -5.796  0.1337E+00  0.1650E+00
  -5.786  0.1341E+00  0.1663E+00
  -5.776  0.1345E+00  0.1677E+00
  -5.766  0.1349E+00  0.1690E+00
  -5.756  0.1353E+00  0.1704E+00
  -5.746  0.1356E+00  0.1717E+00
  -5.736  0.1360E+00  0.1731E+00
  -5.726  0.1364E+00  0.1744E+00
  -5.716  0.1368E+00  0.1758E+00
  -5.706  0.1371E+00  0.1772E+00
  -5.696  0.1375E+00  0.1786E+00
  -5.686  0.1379E+00  0.1799E+00
  -5.676  0.1383E+00  0.1813E+00
  -5.666  0.1386E+00  0.1827E+00
  -5.656  0.1390E+00  0.1841E+00
  -5.646  0.1394E+00  0.1855E+00
  -5.636  0.1397E+00  0.1869E+00
  -5.626  0.1401E+00  0.1883E+00
  -5.616  0.1405E+00  0.1897E+00
  -5.606  0.1409E+00  0.1911E+00
  -5.596  0.1412E+00  0.1925E+00
  -5.586  0.1416E+00  0.1939E+00
  -5.576  0.1419E+00  0.1954E+00
  -5.566  0.1423E+00  0.1968E+00
  -5.556  0.1427E+00  0.1982E+00
  -5.546  0.1430E+00  0.1996E+00
  -5.536  0.1434E+00  0.2011E+00
  -5.526  0.1438E+00  0.2025E+00
  -5.516  0.1441E+00  0.2039E+00
  -5.506  0.1445E+00  0.2054E+00
  -5.496  0.1449E+00  0.2068E+00
  -5.486  0.1452E+00  0.2083E+00
  -5.476  0.1456E+00  0.2097E+00
  -5.466  0.1459E+00  0.2112E+00
  -5.456  0.1463E+00  0.2127E+00
  -5.446  0.1467E+00  0.2141E+00
  -5.436  0.1470E+00  0.2156E+00
  -5.426  0.1474E+00  0.2171E+00
  -5.416  0.1477E+00  0.2186E+00
  -5.406  0.1481E+00  0.2200E+00
  -5.396  0.1484E+00  0.2215E+00
  -5.386  0.1488E+00  0.2230E+00
  -5.376  0.1491E+00  0.2245E+00
  -5.366  0.1495E+00  0.2260E+00
  -5.356  0.1499E+00  0.2275E+00
  -5.346  0.1502E+00  0.2290E+00
  -5.336  0.1506E+00  0.2305E+00
  -5.326  0.1509E+00  0.2320E+00
  -5.316  0.1513E+00  0.2335E+00
  -5.306  0.1516E+00  0.2350E+00
  -5.296  0.1519E+00  0.2366E+00
  -5.286  0.1523E+00  0.2381E+00
  -5.276  0.1526E+00  0.2396E+00
  -5.266  0.1530E+00  0.2411E+00
  -5.256  0.1533E+00  0.2427E+00
  -5.246  0.1537E+00  0.2442E+00
  -5.236  0.1540E+00  0.2457E+00
  -5.226  0.1543E+00  0.2473E+00
  -5.216  0.1547E+00  0.2488E+00
  -5.206  0.1550E+00  0.2504E+00
  -5.196  0.1554E+00  0.2519E+00
  -5.186  0.1557E+00  0.2535E+00
  -5.176  0.1560E+00  0.2551E+00
  -5.166  0.1563E+00  0.2566E+00
  -5.156  0.1567E+00  0.2582E+00
  -5.146  0.1570E+00  0.2598E+00
  -5.136  0.1573E+00  0.2613E+00
  -5.126  0.1577E+00  0.2629E+00
  -5.116  0.1580E+00  0.2645E+00
  -5.106  0.1583E+00  0.2661E+00
  -5.096  0.1586E+00  0.2677E+00
  -5.086  0.1590E+00  0.2692E+00
  -5.076  0.1593E+00  0.2708E+00
  -5.066  0.1596E+00  0.2724E+00
  -5.056  0.1599E+00  0.2740E+00
  -5.046  0.1602E+00  0.2756E+00
  -5.036  0.1605E+00  0.2772E+00
  -5.026  0.1609E+00  0.2789E+00
  -5.016  0.1612E+00  0.2805E+00
  -5.006  0.1615E+00  0.2821E+00
  -4.996  0.1618E+00  0.2837E+00
  -4.986  0.1621E+00  0.2853E+00
  -4.976  0.1624E+00  0.2869E+00
  -4.966  0.1627E+00  0.2886E+00
  -4.956  0.1631E+00  0.2902E+00
  -4.946  0.1634E+00  0.2918E+00
  -4.936  0.1637E+00  0.2935E+00
  -4.926  0.1640E+00  0.2951E+00
  -4.916  0.1643E+00  0.2968E+00
  -4.906  0.1646E+00  0.2984E+00
  -4.896  0.1649E+00  0.3000E+00
  -4.886  0.1652E+00  0.3017E+00
  -4.876  0.1656E+00  0.3034E+00
  -4.866  0.1659E+00  0.3050E+00
  -4.856  0.1662E+00  0.3067E+00
  -4.846  0.1665E+00  0.3083E+00
  -4.836  0.1668E+00  0.3100E+00
  -4.826  0.1671E+00  0.3117E+00
  -4.816  0.1674E+00  0.3134E+00
  -4.806  0.1678E+00  0.3150E+00
  -4.796  0.1681E+00  0.3167E+00
  -4.786  0.1684E+00  0.3184E+00
  -4.776  0.1687E+00  0.3201E+00
  -4.766  0.1690E+00  0.3218E+00
  -4.756  0.1694E+00  0.3235E+00
  -4.746  0.1697E+00  0.3252E+00
  -4.736  0.1700E+00  0.3269E+00
  -4.726  0.1703E+00  0.3286E+00
  -4.716  0.1706E+00  0.3303E+00
  -4.706  0.1710E+00  0.3320E+00
  -4.696  0.1713E+00  0.3337E+00
  -4.686  0.1716E+00  0.3354E+00
  -4.676  0.1719E+00  0.3371E+00
  -4.666  0.1722E+00  0.3389E+00
  -4.656  0.1726E+00  0.3406E+00
  -4.646  0.1729E+00  0.3423E+00
  -4.636  0.1732E+00  0.3440E+00
  -4.626  0.1735E+00  0.3458E+00
  -4.616  0.1738E+00  0.3475E+00
  -4.606  0.1742E+00  0.3493E+00
  -4.596  0.1745E+00  0.3510E+00
  -4.586  0.1748E+00  0.3527E+00
  -4.576  0.1751E+00  0.3545E+00
  -4.566  0.1754E+00  0.3563E+00
  -4.556  0.1758E+00  0.3580E+00
  -4.546  0.1761E+00  0.3598E+00
  -4.536  0.1764E+00  0.3615E+00
  -4.526  0.1767E+00  0.3633E+00
  -4.516  0.1770E+00  0.3651E+00
  -4.506  0.1773E+00  0.3668E+00
  -4.496  0.1776E+00  0.3686E+00
  -4.486  0.1779E+00  0.3704E+00
  -4.476  0.1782E+00  0.3722E+00
  -4.466  0.1785E+00  0.3740E+00
  -4.456  0.1788E+00  0.3758E+00
  -4.446  0.1791E+00  0.3775E+00
  -4.436  0.1794E+00  0.3793E+00
  -4.426  0.1797E+00  0.3811E+00
  -4.416  0.1800E+00  0.3829E+00
  -4.406  0.1803E+00  0.3847E+00
  -4.396  0.1806E+00  0.3866E+00
  -4.386  0.1809E+00  0.3884E+00
  -4.376  0.1812E+00  0.3902E+00
  -4.366  0.1814E+00  0.3920E+00
  -4.356  0.1817E+00  0.3938E+00
  -4.346  0.1820E+00  0.3956E+00
  -4.336  0.1823E+00  0.3974E+00
  -4.326  0.1826E+00  0.3993E+00
  -4.316  0.1828E+00  0.4011E+00
  -4.306  0.1831E+00  0.4029E+00
  -4.296  0.1834E+00  0.4048E+00
  -4.286  0.1837E+00  0.4066E+00
  -4.276  0.1839E+00  0.4084E+00
  -4.266  0.1842E+00  0.4103E+00
  -4.256  0.1845E+00  0.4121E+00
  -4.246  0.1847E+00  0.4140E+00
  -4.236  0.1850E+00  0.4158E+00
  -4.226  0.1853E+00  0.4177E+00
  -4.216  0.1855E+00  0.4195E+00
  -4.206  0.1858E+00  0.4214E+00
  -4.196  0.1861E+00  0.4233E+00
  -4.186  0.1863E+00  0.4251E+00
  -4.176  0.1866E+00  0.4270E+00
  -4.166  0.1869E+00  0.4288E+00
  -4.156  0.1871E+00  0.4307E+00
  -4.146  0.1874E+00  0.4326E+00
  -4.136  0.1877E+00  0.4345E+00
  -4.126  0.1879E+00  0.4363E+00
  -4.116  0.1882E+00  0.4382E+00
  -4.106  0.1885E+00  0.4401E+00
  -4.096  0.1887E+00  0.4420E+00
  -4.086  0.1890E+00  0.4439E+00
  -4.076  0.1893E+00  0.4458E+00
  -4.066  0.1896E+00  0.4477E+00
  -4.056  0.1898E+00  0.4496E+00
  -4.046  0.1901E+00  0.4515E+00
  -4.036  0.1904E+00  0.4534E+00
  -4.026  0.1907E+00  0.4553E+00
  -4.016  0.1909E+00  0.4572E+00
  -4.006  0.1912E+00  0.4591E+00
  -3.996  0.1915E+00  0.4610E+00
  -3.986  0.1918E+00  0.4629E+00
  -3.976  0.1921E+00  0.4649E+00
  -3.966  0.1924E+00  0.4668E+00
  -3.956  0.1927E+00  0.4687E+00
  -3.946  0.1930E+00  0.4706E+00
  -3.936  0.1933E+00  0.4726E+00
  -3.926  0.1936E+00  0.4745E+00
  -3.916  0.1939E+00  0.4765E+00
  -3.906  0.1942E+00  0.4784E+00
  -3.896  0.1945E+00  0.4803E+00
  -3.886  0.1948E+00  0.4823E+00
  -3.876  0.1951E+00  0.4842E+00
  -3.866  0.1954E+00  0.4862E+00
  -3.856  0.1957E+00  0.4881E+00
  -3.846  0.1960E+00  0.4901E+00
  -3.836  0.1963E+00  0.4921E+00
  -3.826  0.1966E+00  0.4940E+00
  -3.816  0.1969E+00  0.4960E+00
  -3.806  0.1972E+00  0.4980E+00
  -3.796  0.1975E+00  0.5000E+00
  -3.786  0.1978E+00  0.5019E+00
  -3.776  0.1981E+00  0.5039E+00
  -3.766  0.1984E+00  0.5059E+00
  -3.756  0.1987E+00  0.5079E+00
  -3.746  0.1990E+00  0.5099E+00
  -3.736  0.1993E+00  0.5119E+00
  -3.726  0.1996E+00  0.5139E+00
  -3.716  0.1999E+00  0.5159E+00
  -3.706  0.2002E+00  0.5179E+00
  -3.696  0.2005E+00  0.5199E+00
  -3.686  0.2008E+00  0.5219E+00
  -3.676  0.2011E+00  0.5239E+00
  -3.666  0.2014E+00  0.5259E+00
  -3.656  0.2017E+00  0.5279E+00
  -3.646  0.2020E+00  0.5299E+00
  -3.636  0.2023E+00  0.5320E+00
  -3.626  0.2026E+00  0.5340E+00
  -3.616  0.2029E+00  0.5360E+00
  -3.606  0.2031E+00  0.5381E+00
  -3.596  0.2034E+00  0.5401E+00
  -3.586  0.2037E+00  0.5421E+00
  -3.576  0.2040E+00  0.5442E+00
  -3.566  0.2042E+00  0.5462E+00
  -3.556  0.2045E+00  0.5483E+00
  -3.546  0.2048E+00  0.5503E+00
  -3.536  0.2050E+00  0.5524E+00
  -3.526  0.2053E+00  0.5544E+00
  -3.516  0.2055E+00  0.5565E+00
  -3.506  0.2058E+00  0.5585E+00
  -3.496  0.2060E+00  0.5606E+00
  -3.486  0.2063E+00  0.5626E+00
  -3.476  0.2065E+00  0.5647E+00
  -3.466  0.2068E+00  0.5668E+00
  -3.456  0.2070E+00  0.5688E+00
  -3.446  0.2073E+00  0.5709E+00
  -3.436  0.2075E+00  0.5730E+00
  -3.426  0.2077E+00  0.5751E+00
  -3.416  0.2080E+00  0.5771E+00
  -3.406  0.2082E+00  0.5792E+00
  -3.396  0.2084E+00  0.5813E+00
  -3.386  0.2087E+00  0.5834E+00
  -3.376  0.2089E+00  0.5855E+00
  -3.366  0.2091E+00  0.5876E+00
  -3.356  0.2093E+00  0.5897E+00
  -3.346  0.2096E+00  0.5918E+00
  -3.336  0.2098E+00  0.5939E+00
  -3.326  0.2100E+00  0.5960E+00
  -3.316  0.2102E+00  0.5981E+00
  -3.306  0.2105E+00  0.6002E+00
  -3.296  0.2107E+00  0.6023E+00
  -3.286  0.2109E+00  0.6044E+00
  -3.276  0.2111E+00  0.6065E+00
  -3.266  0.2113E+00  0.6086E+00
  -3.256  0.2116E+00  0.6107E+00
  -3.246  0.2118E+00  0.6128E+00
  -3.236  0.2120E+00  0.6150E+00
  -3.226  0.2123E+00  0.6171E+00
  -3.216  0.2125E+00  0.6192E+00
  -3.206  0.2127E+00  0.6213E+00
  -3.196  0.2130E+00  0.6235E+00
  -3.186  0.2132E+00  0.6256E+00
  -3.176  0.2134E+00  0.6277E+00
  -3.166  0.2137E+00  0.6299E+00
  -3.156  0.2139E+00  0.6320E+00
  -3.146  0.2142E+00  0.6342E+00
  -3.136  0.2144E+00  0.6363E+00
  -3.126  0.2147E+00  0.6384E+00
  -3.116  0.2149E+00  0.6406E+00
  -3.106  0.2152E+00  0.6427E+00
  -3.096  0.2154E+00  0.6449E+00
  -3.086  0.2157E+00  0.6471E+00
  -3.076  0.2160E+00  0.6492E+00
  -3.066  0.2162E+00  0.6514E+00
  -3.056  0.2165E+00  0.6535E+00
  -3.046  0.2168E+00  0.6557E+00
  -3.036  0.2170E+00  0.6579E+00
  -3.026  0.2173E+00  0.6601E+00
  -3.016  0.2176E+00  0.6622E+00
  -3.006  0.2179E+00  0.6644E+00
  -2.996  0.2182E+00  0.6666E+00
  -2.986  0.2185E+00  0.6688E+00
  -2.976  0.2188E+00  0.6710E+00
  -2.966  0.2191E+00  0.6732E+00
  -2.956  0.2194E+00  0.6754E+00
  -2.946  0.2197E+00  0.6775E+00
  -2.936  0.2200E+00  0.6797E+00
  -2.926  0.2203E+00  0.6819E+00
  -2.916  0.2206E+00  0.6842E+00
  -2.906  0.2209E+00  0.6864E+00
  -2.896  0.2212E+00  0.6886E+00
  -2.886  0.2215E+00  0.6908E+00
  -2.876  0.2218E+00  0.6930E+00
  -2.866  0.2221E+00  0.6952E+00
  -2.856  0.2224E+00  0.6975E+00
  -2.846  0.2228E+00  0.6997E+00
  -2.836  0.2231E+00  0.7019E+00
  -2.826  0.2234E+00  0.7041E+00
  -2.816  0.2237E+00  0.7064E+00
  -2.806  0.2240E+00  0.7086E+00
  -2.796  0.2243E+00  0.7109E+00
  -2.786  0.2246E+00  0.7131E+00
  -2.776  0.2249E+00  0.7154E+00
  -2.766  0.2252E+00  0.7176E+00
  -2.756  0.2256E+00  0.7199E+00
  -2.746  0.2259E+00  0.7221E+00
  -2.736  0.2262E+00  0.7244E+00
  -2.726  0.2265E+00  0.7267E+00
  -2.716  0.2268E+00  0.7289E+00
  -2.706  0.2271E+00  0.7312E+00
  -2.696  0.2274E+00  0.7335E+00
  -2.686  0.2276E+00  0.7357E+00
  -2.676  0.2279E+00  0.7380E+00
  -2.666  0.2282E+00  0.7403E+00
  -2.656  0.2285E+00  0.7426E+00
  -2.646  0.2288E+00  0.7449E+00
  -2.636  0.2291E+00  0.7472E+00
  -2.626  0.2293E+00  0.7495E+00
  -2.616  0.2296E+00  0.7518E+00
  -2.606  0.2299E+00  0.7541E+00
  -2.596  0.2301E+00  0.7564E+00
  -2.586  0.2304E+00  0.7587E+00
  -2.576  0.2306E+00  0.7610E+00
  -2.566  0.2309E+00  0.7633E+00
  -2.556  0.2311E+00  0.7656E+00
  -2.546  0.2313E+00  0.7679E+00
  -2.536  0.2316E+00  0.7702E+00
  -2.526  0.2318E+00  0.7725E+00
  -2.516  0.2320E+00  0.7749E+00
  -2.506  0.2322E+00  0.7772E+00
  -2.496  0.2325E+00  0.7795E+00
  -2.486  0.2327E+00  0.7818E+00
  -2.476  0.2329E+00  0.7842E+00
  -2.466  0.2331E+00  0.7865E+00
  -2.456  0.2333E+00  0.7888E+00
  -2.446  0.2335E+00  0.7912E+00
  -2.436  0.2337E+00  0.7935E+00
  -2.426  0.2339E+00  0.7958E+00
  -2.416  0.2341E+00  0.7982E+00
  -2.406  0.2342E+00  0.8005E+00
  -2.396  0.2344E+00  0.8029E+00
  -2.386  0.2346E+00  0.8052E+00
  -2.376  0.2348E+00  0.8076E+00
  -2.366  0.2350E+00  0.8099E+00
  -2.356  0.2351E+00  0.8123E+00
  -2.346  0.2353E+00  0.8146E+00
  -2.336  0.2355E+00  0.8170E+00
  -2.326  0.2356E+00  0.8193E+00
  -2.316  0.2358E+00  0.8217E+00
  -2.306  0.2360E+00  0.8240E+00
  -2.296  0.2362E+00  0.8264E+00
  -2.286  0.2363E+00  0.8288E+00
  -2.276  0.2365E+00  0.8311E+00
  -2.266  0.2367E+00  0.8335E+00
  -2.256  0.2369E+00  0.8359E+00
  -2.246  0.2370E+00  0.8382E+00
  -2.236  0.2372E+00  0.8406E+00
  -2.226  0.2374E+00  0.8430E+00
  -2.216  0.2376E+00  0.8454E+00
  -2.206  0.2378E+00  0.8477E+00
  -2.196  0.2380E+00  0.8501E+00
  -2.186  0.2382E+00  0.8525E+00
  -2.176  0.2384E+00  0.8549E+00
  -2.166  0.2386E+00  0.8573E+00
  -2.156  0.2388E+00  0.8597E+00
  -2.146  0.2390E+00  0.8620E+00
  -2.136  0.2393E+00  0.8644E+00
  -2.126  0.2395E+00  0.8668E+00
  -2.116  0.2397E+00  0.8692E+00
  -2.106  0.2400E+00  0.8716E+00
  -2.096  0.2402E+00  0.8740E+00
  -2.086  0.2405E+00  0.8764E+00
  -2.076  0.2407E+00  0.8788E+00
  -2.066  0.2410E+00  0.8813E+00
  -2.056  0.2413E+00  0.8837E+00
  -2.046  0.2415E+00  0.8861E+00
  -2.036  0.2418E+00  0.8885E+00
  -2.026  0.2421E+00  0.8909E+00
  -2.016  0.2424E+00  0.8933E+00
  -2.006  0.2427E+00  0.8958E+00
  -1.996  0.2430E+00  0.8982E+00
  -1.986  0.2433E+00  0.9006E+00
  -1.976  0.2437E+00  0.9031E+00
  -1.966  0.2440E+00  0.9055E+00
  -1.956  0.2443E+00  0.9080E+00
  -1.946  0.2447E+00  0.9104E+00
  -1.936  0.2450E+00  0.9128E+00
  -1.926  0.2453E+00  0.9153E+00
  -1.916  0.2457E+00  0.9178E+00
  -1.906  0.2460E+00  0.9202E+00
  -1.896  0.2464E+00  0.9227E+00
  -1.886  0.2468E+00  0.9252E+00
  -1.876  0.2471E+00  0.9276E+00
  -1.866  0.2475E+00  0.9301E+00
  -1.856  0.2479E+00  0.9326E+00
  -1.846  0.2483E+00  0.9351E+00
  -1.836  0.2486E+00  0.9375E+00
  -1.826  0.2490E+00  0.9400E+00
  -1.816  0.2494E+00  0.9425E+00
  -1.806  0.2498E+00  0.9450E+00
  -1.796  0.2501E+00  0.9475E+00
  -1.786  0.2505E+00  0.9500E+00
  -1.776  0.2509E+00  0.9525E+00
  -1.766  0.2513E+00  0.9551E+00
  -1.756  0.2516E+00  0.9576E+00
  -1.746  0.2520E+00  0.9601E+00
  -1.736  0.2524E+00  0.9626E+00
  -1.726  0.2527E+00  0.9651E+00
  -1.716  0.2531E+00  0.9677E+00
  -1.706  0.2535E+00  0.9702E+00
  -1.696  0.2538E+00  0.9727E+00
  -1.686  0.2542E+00  0.9753E+00
  -1.676  0.2545E+00  0.9778E+00
  -1.666  0.2549E+00  0.9804E+00
  -1.656  0.2552E+00  0.9829E+00
  -1.646  0.2555E+00  0.9855E+00
  -1.636  0.2558E+00  0.9880E+00
  -1.626  0.2562E+00  0.9906E+00
  -1.616  0.2565E+00  0.9932E+00
  -1.606  0.2568E+00  0.9957E+00
  -1.596  0.2571E+00  0.9983E+00
  -1.586  0.2573E+00  0.1001E+01
  -1.576  0.2576E+00  0.1003E+01
  -1.566  0.2579E+00  0.1006E+01
  -1.556  0.2582E+00  0.1009E+01
  -1.546  0.2584E+00  0.1011E+01
  -1.536  0.2587E+00  0.1014E+01
  -1.526  0.2589E+00  0.1016E+01
  -1.516  0.2592E+00  0.1019E+01
  -1.506  0.2594E+00  0.1022E+01
  -1.496  0.2596E+00  0.1024E+01
  -1.486  0.2598E+00  0.1027E+01
  -1.476  0.2600E+00  0.1029E+01
  -1.466  0.2602E+00  0.1032E+01
  -1.456  0.2604E+00  0.1035E+01
  -1.446  0.2606E+00  0.1037E+01
  -1.436  0.2608E+00  0.1040E+01
  -1.426  0.2610E+00  0.1042E+01
  -1.416  0.2612E+00  0.1045E+01
  -1.406  0.2613E+00  0.1048E+01
  -1.396  0.2615E+00  0.1050E+01
  -1.386  0.2616E+00  0.1053E+01
  -1.376  0.2618E+00  0.1055E+01
  -1.366  0.2619E+00  0.1058E+01
  -1.356  0.2621E+00  0.1061E+01
  -1.346  0.2622E+00  0.1063E+01
  -1.336  0.2624E+00  0.1066E+01
  -1.326  0.2625E+00  0.1069E+01
  -1.316  0.2627E+00  0.1071E+01
  -1.306  0.2628E+00  0.1074E+01
  -1.296  0.2630E+00  0.1076E+01
  -1.286  0.2631E+00  0.1079E+01
  -1.276  0.2633E+00  0.1082E+01
  -1.266  0.2634E+00  0.1084E+01
  -1.256  0.2636E+00  0.1087E+01
  -1.246  0.2637E+00  0.1090E+01
  -1.236  0.2639E+00  0.1092E+01
  -1.226  0.2640E+00  0.1095E+01
  -1.216  0.2642E+00  0.1098E+01
  -1.206  0.2644E+00  0.1100E+01
  -1.196  0.2646E+00  0.1103E+01
  -1.186  0.2648E+00  0.1105E+01
  -1.176  0.2650E+00  0.1108E+01
  -1.166  0.2652E+00  0.1111E+01
  -1.156  0.2654E+00  0.1113E+01
  -1.146  0.2656E+00  0.1116E+01
  -1.136  0.2658E+00  0.1119E+01
  -1.126  0.2661E+00  0.1121E+01
  -1.116  0.2663E+00  0.1124E+01
  -1.106  0.2666E+00  0.1127E+01
  -1.096  0.2668E+00  0.1129E+01
  -1.086  0.2671E+00  0.1132E+01
  -1.076  0.2674E+00  0.1135E+01
  -1.066  0.2677E+00  0.1137E+01
  -1.056  0.2680E+00  0.1140E+01
  -1.046  0.2684E+00  0.1143E+01
  -1.036  0.2687E+00  0.1145E+01
  -1.026  0.2691E+00  0.1148E+01
  -1.016  0.2694E+00  0.1151E+01
  -1.006  0.2698E+00  0.1154E+01
  -0.996  0.2702E+00  0.1156E+01
  -0.986  0.2706E+00  0.1159E+01
  -0.976  0.2710E+00  0.1162E+01
  -0.966  0.2714E+00  0.1164E+01
  -0.956  0.2719E+00  0.1167E+01
  -0.946  0.2723E+00  0.1170E+01
  -0.936  0.2728E+00  0.1173E+01
  -0.926  0.2733E+00  0.1175E+01
  -0.916  0.2738E+00  0.1178E+01
  -0.906  0.2743E+00  0.1181E+01
  -0.896  0.2748E+00  0.1184E+01
  -0.886  0.2753E+00  0.1186E+01
  -0.876  0.2758E+00  0.1189E+01
  -0.866  0.2764E+00  0.1192E+01
  -0.856  0.2769E+00  0.1195E+01
  -0.846  0.2775E+00  0.1197E+01
  -0.836  0.2780E+00  0.1200E+01
  -0.826  0.2786E+00  0.1203E+01
  -0.816  0.2792E+00  0.1206E+01
  -0.806  0.2798E+00  0.1209E+01
  -0.796  0.2803E+00  0.1211E+01
  -0.786  0.2809E+00  0.1214E+01
  -0.776  0.2815E+00  0.1217E+01
  -0.766  0.2821E+00  0.1220E+01
  -0.756  0.2827E+00  0.1223E+01
  -0.746  0.2833E+00  0.1225E+01
  -0.736  0.2839E+00  0.1228E+01
  -0.726  0.2845E+00  0.1231E+01
  -0.716  0.2851E+00  0.1234E+01
  -0.706  0.2857E+00  0.1237E+01
  -0.696  0.2863E+00  0.1240E+01
  -0.686  0.2869E+00  0.1243E+01
  -0.676  0.2874E+00  0.1245E+01
  -0.666  0.2880E+00  0.1248E+01
  -0.656  0.2886E+00  0.1251E+01
  -0.646  0.2891E+00  0.1254E+01
  -0.636  0.2897E+00  0.1257E+01
  -0.626  0.2902E+00  0.1260E+01
  -0.616  0.2908E+00  0.1263E+01
  -0.606  0.2913E+00  0.1266E+01
  -0.596  0.2918E+00  0.1269E+01
  -0.586  0.2923E+00  0.1272E+01
  -0.576  0.2928E+00  0.1274E+01
  -0.566  0.2932E+00  0.1277E+01
  -0.556  0.2937E+00  0.1280E+01
  -0.546  0.2941E+00  0.1283E+01
  -0.536  0.2946E+00  0.1286E+01
  -0.526  0.2950E+00  0.1289E+01
  -0.516  0.2953E+00  0.1292E+01
  -0.506  0.2957E+00  0.1295E+01
  -0.496  0.2961E+00  0.1298E+01
  -0.486  0.2964E+00  0.1301E+01
  -0.476  0.2967E+00  0.1304E+01
  -0.466  0.2970E+00  0.1307E+01
  -0.456  0.2973E+00  0.1310E+01
  -0.446  0.2976E+00  0.1313E+01
  -0.436  0.2978E+00  0.1316E+01
  -0.426  0.2980E+00  0.1319E+01
  -0.416  0.2982E+00  0.1322E+01
  -0.406  0.2984E+00  0.1325E+01
  -0.396  0.2986E+00  0.1328E+01
  -0.386  0.2987E+00  0.1331E+01
  -0.376  0.2988E+00  0.1334E+01
  -0.366  0.2989E+00  0.1337E+01
  -0.356  0.2990E+00  0.1340E+01
  -0.346  0.2991E+00  0.1343E+01
  -0.336  0.2991E+00  0.1346E+01
  -0.326  0.2991E+00  0.1349E+01
  -0.316  0.2991E+00  0.1352E+01
  -0.306  0.2991E+00  0.1355E+01
  -0.296  0.2991E+00  0.1358E+01
  -0.286  0.2990E+00  0.1361E+01
  -0.276  0.2990E+00  0.1364E+01
  -0.266  0.2989E+00  0.1367E+01
  -0.256  0.2988E+00  0.1370E+01
  -0.246  0.2987E+00  0.1373E+01
  -0.236  0.2985E+00  0.1376E+01
  -0.226  0.2984E+00  0.1379E+01
  -0.216  0.2982E+00  0.1382E+01
  -0.206  0.2981E+00  0.1385E+01
  -0.196  0.2979E+00  0.1388E+01
  -0.186  0.2977E+00  0.1391E+01
  -0.176  0.2975E+00  0.1394E+01
  -0.166  0.2972E+00  0.1396E+01
  -0.156  0.2970E+00  0.1399E+01
  -0.146  0.2968E+00  0.1402E+01
  -0.136  0.2965E+00  0.1405E+01
  -0.126  0.2963E+00  0.1408E+01
  -0.116  0.2960E+00  0.1411E+01
  -0.106  0.2957E+00  0.1414E+01
  -0.096  0.2955E+00  0.1417E+01
  -0.086  0.2952E+00  0.1420E+01
  -0.076  0.2949E+00  0.1423E+01
  -0.066  0.2946E+00  0.1426E+01
  -0.056  0.2943E+00  0.1429E+01
  -0.046  0.2940E+00  0.1432E+01
  -0.036  0.2938E+00  0.1435E+01
  -0.026  0.2935E+00  0.1438E+01
  -0.016  0.2932E+00  0.1441E+01
  -0.006  0.2929E+00  0.1444E+01
   0.004  0.2926E+00  0.1447E+01
   0.014  0.2923E+00  0.1450E+01
   0.024  0.2920E+00  0.1452E+01
   0.034  0.2918E+00  0.1455E+01
   0.044  0.2915E+00  0.1458E+01
   0.054  0.2912E+00  0.1461E+01
   0.064  0.2910E+00  0.1464E+01
   0.074  0.2907E+00  0.1467E+01
   0.084  0.2905E+00  0.1470E+01
   0.094  0.2902E+00  0.1473E+01
   0.104  0.2900E+00  0.1476E+01
   0.114  0.2898E+00  0.1479E+01
   0.124  0.2895E+00  0.1482E+01
   0.134  0.2893E+00  0.1484E+01
   0.144  0.2891E+00  0.1487E+01
   0.154  0.2889E+00  0.1490E+01
   0.164  0.2887E+00  0.1493E+01
   0.174  0.2886E+00  0.1496E+01
   0.184  0.2884E+00  0.1499E+01
   0.194  0.2882E+00  0.1502E+01
   0.204  0.2881E+00  0.1505E+01
   0.214  0.2879E+00  0.1507E+01
   0.224  0.2878E+00  0.1510E+01
   0.234  0.2876E+00  0.1513E+01
   0.244  0.2875E+00  0.1516E+01
   0.254  0.2874E+00  0.1519E+01
   0.264  0.2873E+00  0.1522E+01
   0.274  0.2872E+00  0.1525E+01
   0.284  0.2871E+00  0.1528E+01
   0.294  0.2870E+00  0.1530E+01
   0.304  0.2869E+00  0.1533E+01
   0.314  0.2868E+00  0.1536E+01
   0.324  0.2867E+00  0.1539E+01
   0.334  0.2866E+00  0.1542E+01
   0.344  0.2866E+00  0.1545E+01
   0.354  0.2865E+00  0.1548E+01
   0.364  0.2864E+00  0.1551E+01
   0.374  0.2864E+00  0.1553E+01
   0.384  0.2863E+00  0.1556E+01
   0.394  0.2862E+00  0.1559E+01
   0.404  0.2862E+00  0.1562E+01
   0.414  0.2861E+00  0.1565E+01
   0.424  0.2861E+00  0.1568E+01
   0.434  0.2860E+00  0.1571E+01
   0.444  0.2859E+00  0.1573E+01
   0.454  0.2859E+00  0.1576E+01
   0.464  0.2858E+00  0.1579E+01
   0.474  0.2858E+00  0.1582E+01
   0.484  0.2857E+00  0.1585E+01
   0.494  0.2856E+00  0.1588E+01
   0.504  0.2855E+00  0.1591E+01
   0.514  0.2855E+00  0.1593E+01
   0.524  0.2854E+00  0.1596E+01
   0.534  0.2853E+00  0.1599E+01
   0.544  0.2852E+00  0.1602E+01
   0.554  0.2851E+00  0.1605E+01
   0.564  0.2850E+00  0.1608E+01
   0.574  0.2849E+00  0.1611E+01
   0.584  0.2848E+00  0.1613E+01
   0.594  0.2847E+00  0.1616E+01
   0.604  0.2845E+00  0.1619E+01
   0.614  0.2844E+00  0.1622E+01
   0.624  0.2843E+00  0.1625E+01
   0.634  0.2841E+00  0.1628E+01
   0.644  0.2840E+00  0.1630E+01
   0.654  0.2839E+00  0.1633E+01
   0.664  0.2837E+00  0.1636E+01
   0.674  0.2836E+00  0.1639E+01
   0.684  0.2834E+00  0.1642E+01
   0.694  0.2833E+00  0.1645E+01
   0.704  0.2831E+00  0.1647E+01
   0.714  0.2829E+00  0.1650E+01
   0.724  0.2828E+00  0.1653E+01
   0.734  0.2826E+00  0.1656E+01
   0.744  0.2824E+00  0.1659E+01
   0.754  0.2823E+00  0.1662E+01
   0.764  0.2821E+00  0.1664E+01
   0.774  0.2820E+00  0.1667E+01
   0.784  0.2818E+00  0.1670E+01
   0.794  0.2816E+00  0.1673E+01
   0.804  0.2815E+00  0.1676E+01
   0.814  0.2813E+00  0.1678E+01
   0.824  0.2812E+00  0.1681E+01
   0.834  0.2811E+00  0.1684E+01
   0.844  0.2809E+00  0.1687E+01
   0.854  0.2808E+00  0.1690E+01
   0.864  0.2807E+00  0.1693E+01
   0.874  0.2806E+00  0.1695E+01
   0.884  0.2805E+00  0.1698E+01
   0.894  0.2804E+00  0.1701E+01
   0.904  0.2803E+00  0.1704E+01
   0.914  0.2802E+00  0.1707E+01
   0.924  0.2802E+00  0.1709E+01
   0.934  0.2802E+00  0.1712E+01
   0.944  0.2801E+00  0.1715E+01
   0.954  0.2801E+00  0.1718E+01
   0.964  0.2801E+00  0.1721E+01
   0.974  0.2801E+00  0.1723E+01
   0.984  0.2802E+00  0.1726E+01
   0.994  0.2802E+00  0.1729E+01
   1.004  0.2803E+00  0.1732E+01
   1.014  0.2804E+00  0.1735E+01
   1.024  0.2805E+00  0.1737E+01
   1.034  0.2806E+00  0.1740E+01
   1.044  0.2807E+00  0.1743E+01
   1.054  0.2809E+00  0.1746E+01
   1.064  0.2811E+00  0.1749E+01
   1.074  0.2813E+00  0.1751E+01
   1.084  0.2815E+00  0.1754E+01
   1.094  0.2817E+00  0.1757E+01
   1.104  0.2820E+00  0.1760E+01
   1.114  0.2822E+00  0.1763E+01
   1.124  0.2825E+00  0.1766E+01
   1.134  0.2828E+00  0.1768E+01
   1.144  0.2832E+00  0.1771E+01
   1.154  0.2835E+00  0.1774E+01
   1.164  0.2839E+00  0.1777E+01
   1.174  0.2843E+00  0.1780E+01
   1.184  0.2847E+00  0.1783E+01
   1.194  0.2851E+00  0.1785E+01
   1.204  0.2855E+00  0.1788E+01
   1.214  0.2860E+00  0.1791E+01
   1.224  0.2864E+00  0.1794E+01
   1.234  0.2869E+00  0.1797E+01
   1.244  0.2874E+00  0.1800E+01
   1.254  0.2879E+00  0.1803E+01
   1.264  0.2884E+00  0.1805E+01
   1.274  0.2889E+00  0.1808E+01
   1.284  0.2895E+00  0.1811E+01
   1.294  0.2900E+00  0.1814E+01
   1.304  0.2905E+00  0.1817E+01
   1.314  0.2911E+00  0.1820E+01
   1.324  0.2917E+00  0.1823E+01
   1.334  0.2922E+00  0.1826E+01
   1.344  0.2928E+00  0.1829E+01
   1.354  0.2934E+00  0.1832E+01
   1.364  0.2940E+00  0.1835E+01
   1.374  0.2945E+00  0.1838E+01
   1.384  0.2951E+00  0.1841E+01
   1.394  0.2957E+00  0.1843E+01
   1.404  0.2962E+00  0.1846E+01
   1.414  0.2968E+00  0.1849E+01
   1.424  0.2974E+00  0.1852E+01
   1.434  0.2979E+00  0.1855E+01
   1.444  0.2985E+00  0.1858E+01
   1.454  0.2990E+00  0.1861E+01
   1.464  0.2995E+00  0.1864E+01
   1.474  0.3000E+00  0.1867E+01
   1.484  0.3005E+00  0.1870E+01
   1.494  0.3010E+00  0.1873E+01
   1.504  0.3015E+00  0.1876E+01
   1.514  0.3019E+00  0.1879E+01
   1.524  0.3024E+00  0.1882E+01
   1.534  0.3028E+00  0.1885E+01
   1.544  0.3032E+00  0.1888E+01
   1.554  0.3036E+00  0.1892E+01
   1.564  0.3040E+00  0.1895E+01
   1.574  0.3043E+00  0.1898E+01
   1.584  0.3047E+00  0.1901E+01
   1.594  0.3050E+00  0.1904E+01
   1.604  0.3052E+00  0.1907E+01
   1.614  0.3055E+00  0.1910E+01
   1.624  0.3058E+00  0.1913E+01
   1.634  0.3060E+00  0.1916E+01
   1.644  0.3062E+00  0.1919E+01
   1.654  0.3064E+00  0.1922E+01
   1.664  0.3065E+00  0.1925E+01
   1.674  0.3066E+00  0.1928E+01
   1.684  0.3068E+00  0.1931E+01
   1.694  0.3068E+00  0.1934E+01
   1.704  0.3069E+00  0.1937E+01
   1.714  0.3070E+00  0.1940E+01
   1.724  0.3070E+00  0.1944E+01
   1.734  0.3070E+00  0.1947E+01
   1.744  0.3070E+00  0.1950E+01
   1.754  0.3069E+00  0.1953E+01
   1.764  0.3069E+00  0.1956E+01
   1.774  0.3068E+00  0.1959E+01
   1.784  0.3067E+00  0.1962E+01
   1.794  0.3066E+00  0.1965E+01
   1.804  0.3065E+00  0.1968E+01
   1.814  0.3064E+00  0.1971E+01
   1.824  0.3063E+00  0.1974E+01
   1.834  0.3061E+00  0.1977E+01
   1.844  0.3059E+00  0.1980E+01
   1.854  0.3058E+00  0.1983E+01
   1.864  0.3056E+00  0.1986E+01
   1.874  0.3054E+00  0.1989E+01
   1.884  0.3052E+00  0.1993E+01
   1.894  0.3050E+00  0.1996E+01
   1.904  0.3048E+00  0.1999E+01
   1.914  0.3046E+00  0.2002E+01
   1.924  0.3044E+00  0.2005E+01
   1.934  0.3042E+00  0.2008E+01
   1.944  0.3040E+00  0.2011E+01
   1.954  0.3038E+00  0.2014E+01
   1.964  0.3036E+00  0.2017E+01
   1.974  0.3034E+00  0.2020E+01
   1.984  0.3032E+00  0.2023E+01
   1.994  0.3031E+00  0.2026E+01
   2.004  0.3029E+00  0.2029E+01
   2.014  0.3028E+00  0.2032E+01
   2.024  0.3026E+00  0.2035E+01
   2.034  0.3025E+00  0.2038E+01
   2.044  0.3024E+00  0.2041E+01
   2.054  0.3023E+00  0.2044E+01
   2.064  0.3022E+00  0.2047E+01
   2.074  0.3021E+00  0.2050E+01
   2.084  0.3020E+00  0.2053E+01
   2.094  0.3020E+00  0.2056E+01
   2.104  0.3020E+00  0.2059E+01
   2.114  0.3020E+00  0.2062E+01
   2.124  0.3020E+00  0.2065E+01
   2.134  0.3020E+00  0.2068E+01
   2.144  0.3021E+00  0.2071E+01
   2.154  0.3021E+00  0.2074E+01
   2.164  0.3022E+00  0.2077E+01
   2.174  0.3023E+00  0.2080E+01
   2.184  0.3025E+00  0.2083E+01
   2.194  0.3026E+00  0.2086E+01
   2.204  0.3028E+00  0.2089E+01
   2.214  0.3030E+00  0.2092E+01
   2.224  0.3032E+00  0.2096E+01
   2.234  0.3034E+00  0.2099E+01
   2.244  0.3036E+00  0.2102E+01
   2.254  0.3039E+00  0.2105E+01
   2.264  0.3042E+00  0.2108E+01
   2.274  0.3045E+00  0.2111E+01
   2.284  0.3048E+00  0.2114E+01
   2.294  0.3051E+00  0.2117E+01
   2.304  0.3055E+00  0.2120E+01
   2.314  0.3058E+00  0.2123E+01
   2.324  0.3062E+00  0.2126E+01
   2.334  0.3066E+00  0.2129E+01
   2.344  0.3070E+00  0.2132E+01
   2.354  0.3074E+00  0.2135E+01
   2.364  0.3078E+00  0.2138E+01
   2.374  0.3083E+00  0.2141E+01
   2.384  0.3087E+00  0.2144E+01
   2.394  0.3092E+00  0.2148E+01
   2.404  0.3096E+00  0.2151E+01
   2.414  0.3101E+00  0.2154E+01
   2.424  0.3105E+00  0.2157E+01
   2.434  0.3110E+00  0.2160E+01
   2.444  0.3115E+00  0.2163E+01
   2.454  0.3120E+00  0.2166E+01
   2.464  0.3124E+00  0.2169E+01
   2.474  0.3129E+00  0.2172E+01
   2.484  0.3134E+00  0.2176E+01
   2.494  0.3139E+00  0.2179E+01
   2.504  0.3144E+00  0.2182E+01
   2.514  0.3148E+00  0.2185E+01
   2.524  0.3153E+00  0.2188E+01
   2.534  0.3158E+00  0.2191E+01
   2.544  0.3162E+00  0.2194E+01
   2.554  0.3167E+00  0.2198E+01
   2.564  0.3172E+00  0.2201E+01
   2.574  0.3176E+00  0.2204E+01
   2.584  0.3181E+00  0.2207E+01
   2.594  0.3185E+00  0.2210E+01
   2.604  0.3189E+00  0.2214E+01
   2.614  0.3194E+00  0.2217E+01
   2.624  0.3198E+00  0.2220E+01
   2.634  0.3202E+00  0.2223E+01
   2.644  0.3206E+00  0.2226E+01
   2.654  0.3210E+00  0.2230E+01
   2.664  0.3214E+00  0.2233E+01
   2.674  0.3217E+00  0.2236E+01
   2.684  0.3221E+00  0.2239E+01
   2.694  0.3225E+00  0.2242E+01
   2.704  0.3229E+00  0.2246E+01
   2.714  0.3232E+00  0.2249E+01
   2.724  0.3236E+00  0.2252E+01
   2.734  0.3239E+00  0.2255E+01
   2.744  0.3242E+00  0.2259E+01
   2.754  0.3246E+00  0.2262E+01
   2.764  0.3249E+00  0.2265E+01
   2.774  0.3252E+00  0.2268E+01
   2.784  0.3255E+00  0.2272E+01
   2.794  0.3259E+00  0.2275E+01
   2.804  0.3262E+00  0.2278E+01
   2.814  0.3265E+00  0.2281E+01
   2.824  0.3268E+00  0.2285E+01
   2.834  0.3271E+00  0.2288E+01
   2.844  0.3274E+00  0.2291E+01
   2.854  0.3278E+00  0.2294E+01
   2.864  0.3281E+00  0.2298E+01
   2.874  0.3284E+00  0.2301E+01
   2.884  0.3287E+00  0.2304E+01
   2.894  0.3290E+00  0.2308E+01
   2.904  0.3294E+00  0.2311E+01
   2.914  0.3297E+00  0.2314E+01
   2.924  0.3300E+00  0.2318E+01
   2.934  0.3304E+00  0.2321E+01
   2.944  0.3307E+00  0.2324E+01
   2.954  0.3311E+00  0.2327E+01
   2.964  0.3315E+00  0.2331E+01
   2.974  0.3318E+00  0.2334E+01
   2.984  0.3322E+00  0.2337E+01
   2.994  0.3326E+00  0.2341E+01
   3.004  0.3330E+00  0.2344E+01
   3.014  0.3334E+00  0.2347E+01
   3.024  0.3338E+00  0.2351E+01
   3.034  0.3343E+00  0.2354E+01
   3.044  0.3347E+00  0.2357E+01
   3.054  0.3352E+00  0.2361E+01
   3.064  0.3356E+00  0.2364E+01
   3.074  0.3361E+00  0.2367E+01
   3.084  0.3366E+00  0.2371E+01
   3.094  0.3371E+00  0.2374E+01
   3.104  0.3376E+00  0.2378E+01
   3.114  0.3381E+00  0.2381E+01
   3.124  0.3386E+00  0.2384E+01
   3.134  0.3391E+00  0.2388E+01
   3.144  0.3396E+00  0.2391E+01
   3.154  0.3402E+00  0.2395E+01
   3.164  0.3407E+00  0.2398E+01
   3.174  0.3413E+00  0.2401E+01
   3.184  0.3419E+00  0.2405E+01
   3.194  0.3425E+00  0.2408E+01
   3.204  0.3430E+00  0.2412E+01
   3.214  0.3436E+00  0.2415E+01
   3.224  0.3442E+00  0.2419E+01
   3.234  0.3448E+00  0.2422E+01
   3.244  0.3454E+00  0.2425E+01
   3.254  0.3460E+00  0.2429E+01
   3.264  0.3466E+00  0.2432E+01
   3.274  0.3472E+00  0.2436E+01
   3.284  0.3478E+00  0.2439E+01
   3.294  0.3484E+00  0.2443E+01
   3.304  0.3490E+00  0.2446E+01
   3.314  0.3496E+00  0.2450E+01
   3.324  0.3502E+00  0.2453E+01
   3.334  0.3508E+00  0.2457E+01
   3.344  0.3514E+00  0.2460E+01
   3.354  0.3520E+00  0.2464E+01
   3.364  0.3525E+00  0.2467E+01
   3.374  0.3531E+00  0.2471E+01
   3.384  0.3537E+00  0.2474E+01
   3.394  0.3542E+00  0.2478E+01
   3.404  0.3547E+00  0.2481E+01
   3.414  0.3552E+00  0.2485E+01
   3.424  0.3558E+00  0.2489E+01
   3.434  0.3563E+00  0.2492E+01
   3.444  0.3567E+00  0.2496E+01
   3.454  0.3572E+00  0.2499E+01
   3.464  0.3576E+00  0.2503E+01
   3.474  0.3581E+00  0.2506E+01
   3.484  0.3585E+00  0.2510E+01
   3.494  0.3589E+00  0.2514E+01
   3.504  0.3593E+00  0.2517E+01
   3.514  0.3596E+00  0.2521E+01
   3.524  0.3600E+00  0.2524E+01
   3.534  0.3603E+00  0.2528E+01
   3.544  0.3606E+00  0.2532E+01
   3.554  0.3609E+00  0.2535E+01
   3.564  0.3612E+00  0.2539E+01
   3.574  0.3614E+00  0.2542E+01
   3.584  0.3617E+00  0.2546E+01
   3.594  0.3619E+00  0.2550E+01
   3.604  0.3620E+00  0.2553E+01
   3.614  0.3622E+00  0.2557E+01
   3.624  0.3624E+00  0.2561E+01
   3.634  0.3625E+00  0.2564E+01
   3.644  0.3626E+00  0.2568E+01
   3.654  0.3627E+00  0.2571E+01
   3.664  0.3627E+00  0.2575E+01
   3.674  0.3628E+00  0.2579E+01
   3.684  0.3628E+00  0.2582E+01
   3.694  0.3628E+00  0.2586E+01
   3.704  0.3628E+00  0.2590E+01
   3.714  0.3628E+00  0.2593E+01
   3.724  0.3627E+00  0.2597E+01
   3.734  0.3627E+00  0.2600E+01
   3.744  0.3626E+00  0.2604E+01
   3.754  0.3625E+00  0.2608E+01
   3.764  0.3624E+00  0.2611E+01
   3.774  0.3623E+00  0.2615E+01
   3.784  0.3622E+00  0.2619E+01
   3.794  0.3620E+00  0.2622E+01
   3.804  0.3619E+00  0.2626E+01
   3.814  0.3617E+00  0.2629E+01
   3.824  0.3615E+00  0.2633E+01
   3.834  0.3614E+00  0.2637E+01
   3.844  0.3612E+00  0.2640E+01
   3.854  0.3610E+00  0.2644E+01
   3.864  0.3608E+00  0.2648E+01
   3.874  0.3606E+00  0.2651E+01
   3.884  0.3604E+00  0.2655E+01
   3.894  0.3602E+00  0.2658E+01
   3.904  0.3600E+00  0.2662E+01
   3.914  0.3598E+00  0.2666E+01
   3.924  0.3596E+00  0.2669E+01
   3.934  0.3594E+00  0.2673E+01
   3.944  0.3592E+00  0.2676E+01
   3.954  0.3590E+00  0.2680E+01
   3.964  0.3588E+00  0.2683E+01
   3.974  0.3586E+00  0.2687E+01
   3.984  0.3584E+00  0.2691E+01
   3.994  0.3582E+00  0.2694E+01
   4.004  0.3581E+00  0.2698E+01
   4.014  0.3579E+00  0.2701E+01
   4.024  0.3578E+00  0.2705E+01
   4.034  0.3576E+00  0.2709E+01
   4.044  0.3575E+00  0.2712E+01
   4.054  0.3574E+00  0.2716E+01
   4.064  0.3573E+00  0.2719E+01
   4.074  0.3572E+00  0.2723E+01
   4.084  0.3572E+00  0.2726E+01
   4.094  0.3571E+00  0.2730E+01
   4.104  0.3571E+00  0.2734E+01
   4.114  0.3571E+00  0.2737E+01
   4.124  0.3570E+00  0.2741E+01
   4.134  0.3570E+00  0.2744E+01
   4.144  0.3571E+00  0.2748E+01
   4.154  0.3571E+00  0.2751E+01
   4.164  0.3572E+00  0.2755E+01
   4.174  0.3572E+00  0.2759E+01
   4.184  0.3573E+00  0.2762E+01
   4.194  0.3574E+00  0.2766E+01
   4.204  0.3576E+00  0.2769E+01
   4.214  0.3577E+00  0.2773E+01
   4.224  0.3578E+00  0.2776E+01
   4.234  0.3580E+00  0.2780E+01
   4.244  0.3582E+00  0.2784E+01
   4.254  0.3584E+00  0.2787E+01
   4.264  0.3586E+00  0.2791E+01
   4.274  0.3588E+00  0.2794E+01
   4.284  0.3591E+00  0.2798E+01
   4.294  0.3593E+00  0.2802E+01
   4.304  0.3596E+00  0.2805E+01
   4.314  0.3599E+00  0.2809E+01
   4.324  0.3602E+00  0.2812E+01
   4.334  0.3605E+00  0.2816E+01
   4.344  0.3608E+00  0.2820E+01
   4.354  0.3612E+00  0.2823E+01
   4.364  0.3615E+00  0.2827E+01
   4.374  0.3619E+00  0.2830E+01
   4.384  0.3622E+00  0.2834E+01
   4.394  0.3626E+00  0.2838E+01
   4.404  0.3629E+00  0.2841E+01
   4.414  0.3633E+00  0.2845E+01
   4.424  0.3637E+00  0.2849E+01
   4.434  0.3641E+00  0.2852E+01
   4.444  0.3645E+00  0.2856E+01
   4.454  0.3649E+00  0.2859E+01
   4.464  0.3653E+00  0.2863E+01
   4.474  0.3657E+00  0.2867E+01
   4.484  0.3661E+00  0.2870E+01
   4.494  0.3665E+00  0.2874E+01
   4.504  0.3669E+00  0.2878E+01
   4.514  0.3673E+00  0.2881E+01
   4.524  0.3677E+00  0.2885E+01
   4.534  0.3681E+00  0.2889E+01
   4.544  0.3685E+00  0.2892E+01
   4.554  0.3689E+00  0.2896E+01
   4.564  0.3693E+00  0.2900E+01
   4.574  0.3697E+00  0.2904E+01
   4.584  0.3701E+00  0.2907E+01
   4.594  0.3705E+00  0.2911E+01
   4.604  0.3708E+00  0.2915E+01
   4.614  0.3712E+00  0.2918E+01
   4.624  0.3716E+00  0.2922E+01
   4.634  0.3719E+00  0.2926E+01
   4.644  0.3723E+00  0.2930E+01
   4.654  0.3726E+00  0.2933E+01
   4.664  0.3729E+00  0.2937E+01
   4.674  0.3733E+00  0.2941E+01
   4.684  0.3736E+00  0.2944E+01
   4.694  0.3739E+00  0.2948E+01
   4.704  0.3742E+00  0.2952E+01
   4.714  0.3745E+00  0.2956E+01
   4.724  0.3748E+00  0.2959E+01
   4.734  0.3751E+00  0.2963E+01
   4.744  0.3753E+00  0.2967E+01
   4.754  0.3756E+00  0.2971E+01
   4.764  0.3758E+00  0.2974E+01
   4.774  0.3761E+00  0.2978E+01
   4.784  0.3763E+00  0.2982E+01
   4.794  0.3766E+00  0.2986E+01
   4.804  0.3768E+00  0.2990E+01
   4.814  0.3770E+00  0.2993E+01
   4.824  0.3772E+00  0.2997E+01
   4.834  0.3774E+00  0.3001E+01
   4.844  0.3776E+00  0.3005E+01
   4.854  0.3778E+00  0.3008E+01
   4.864  0.3780E+00  0.3012E+01
   4.874  0.3782E+00  0.3016E+01
   4.884  0.3783E+00  0.3020E+01
   4.894  0.3785E+00  0.3024E+01
   4.904  0.3787E+00  0.3027E+01
   4.914  0.3788E+00  0.3031E+01
   4.924  0.3790E+00  0.3035E+01
   4.934  0.3791E+00  0.3039E+01
   4.944  0.3793E+00  0.3042E+01
   4.954  0.3794E+00  0.3046E+01
   4.964  0.3795E+00  0.3050E+01
   4.974  0.3797E+00  0.3054E+01
   4.984  0.3798E+00  0.3058E+01
   4.994  0.3799E+00  0.3061E+01
   5.004  0.3801E+00  0.3065E+01
   5.014  0.3802E+00  0.3069E+01
   5.024  0.3803E+00  0.3073E+01
   5.034  0.3804E+00  0.3077E+01
   5.044  0.3806E+00  0.3080E+01
   5.054  0.3807E+00  0.3084E+01
   5.064  0.3808E+00  0.3088E+01
   5.074  0.3809E+00  0.3092E+01
   5.084  0.3811E+00  0.3096E+01
   5.094  0.3812E+00  0.3100E+01
   5.104  0.3813E+00  0.3103E+01
   5.114  0.3814E+00  0.3107E+01
   5.124  0.3815E+00  0.3111E+01
   5.134  0.3816E+00  0.3115E+01
   5.144  0.3818E+00  0.3119E+01
   5.154  0.3819E+00  0.3122E+01
   5.164  0.3820E+00  0.3126E+01
   5.174  0.3821E+00  0.3130E+01
   5.184  0.3822E+00  0.3134E+01
   5.194  0.3824E+00  0.3138E+01
   5.204  0.3825E+00  0.3142E+01
   5.214  0.3826E+00  0.3145E+01
   5.224  0.3827E+00  0.3149E+01
   5.234  0.3829E+00  0.3153E+01
   5.244  0.3830E+00  0.3157E+01
   5.254  0.3831E+00  0.3161E+01
   5.264  0.3832E+00  0.3165E+01
   5.274  0.3833E+00  0.3168E+01
   5.284  0.3835E+00  0.3172E+01
   5.294  0.3836E+00  0.3176E+01
   5.304  0.3837E+00  0.3180E+01
   5.314  0.3838E+00  0.3184E+01
   5.324  0.3840E+00  0.3188E+01
   5.334  0.3841E+00  0.3191E+01
   5.344  0.3842E+00  0.3195E+01
   5.354  0.3843E+00  0.3199E+01
   5.364  0.3844E+00  0.3203E+01
   5.374  0.3846E+00  0.3207E+01
   5.384  0.3847E+00  0.3211E+01
   5.394  0.3848E+00  0.3214E+01
   5.404  0.3849E+00  0.3218E+01
   5.414  0.3850E+00  0.3222E+01
   5.424  0.3852E+00  0.3226E+01
   5.434  0.3853E+00  0.3230E+01
   5.444  0.3854E+00  0.3234E+01
   5.454  0.3855E+00  0.3238E+01
   5.464  0.3857E+00  0.3241E+01
   5.474  0.3858E+00  0.3245E+01
   5.484  0.3859E+00  0.3249E+01
   5.494  0.3860E+00  0.3253E+01
   5.504  0.3862E+00  0.3257E+01
   5.514  0.3863E+00  0.3261E+01
   5.524  0.3864E+00  0.3265E+01
   5.534  0.3866E+00  0.3268E+01
   5.544  0.3867E+00  0.3272E+01
   5.554  0.3868E+00  0.3276E+01
   5.564  0.3870E+00  0.3280E+01
   5.574  0.3871E+00  0.3284E+01
   5.584  0.3873E+00  0.3288E+01
   5.594  0.3874E+00  0.3292E+01
   5.604  0.3876E+00  0.3296E+01
   5.614  0.3878E+00  0.3299E+01
   5.624  0.3879E+00  0.3303E+01
   5.634  0.3881E+00  0.3307E+01
   5.644  0.3883E+00  0.3311E+01
   5.654  0.3885E+00  0.3315E+01
   5.664  0.3887E+00  0.3319E+01
   5.674  0.3889E+00  0.3323E+01
   5.684  0.3891E+00  0.3327E+01
   5.694  0.3893E+00  0.3330E+01
   5.704  0.3896E+00  0.3334E+01
   5.714  0.3898E+00  0.3338E+01
   5.724  0.3901E+00  0.3342E+01
   5.734  0.3903E+00  0.3346E+01
   5.744  0.3906E+00  0.3350E+01
   5.754  0.3909E+00  0.3354E+01
   5.764  0.3912E+00  0.3358E+01
   5.774  0.3915E+00  0.3362E+01
   5.784  0.3918E+00  0.3366E+01
   5.794  0.3921E+00  0.3370E+01
   5.804  0.3925E+00  0.3374E+01
   5.814  0.3928E+00  0.3377E+01
   5.824  0.3932E+00  0.3381E+01
   5.834  0.3935E+00  0.3385E+01
   5.844  0.3939E+00  0.3389E+01
   5.854  0.3943E+00  0.3393E+01
   5.864  0.3947E+00  0.3397E+01
   5.874  0.3951E+00  0.3401E+01
   5.884  0.3956E+00  0.3405E+01
   5.894  0.3960E+00  0.3409E+01
   5.904  0.3965E+00  0.3413E+01
   5.914  0.3969E+00  0.3417E+01
   5.924  0.3974E+00  0.3421E+01
   5.934  0.3979E+00  0.3425E+01
   5.944  0.3984E+00  0.3429E+01
   5.954  0.3989E+00  0.3433E+01
   5.964  0.3994E+00  0.3437E+01
   5.974  0.3999E+00  0.3441E+01
   5.984  0.4004E+00  0.3445E+01
   5.994  0.4009E+00  0.3449E+01
   6.004  0.4015E+00  0.3453E+01
   6.014  0.4020E+00  0.3457E+01
   6.024  0.4026E+00  0.3461E+01
   6.034  0.4031E+00  0.3465E+01
   6.044  0.4037E+00  0.3469E+01
   6.054  0.4042E+00  0.3473E+01
   6.064  0.4048E+00  0.3477E+01
   6.074  0.4053E+00  0.3481E+01
   6.084  0.4059E+00  0.3485E+01
   6.094  0.4065E+00  0.3489E+01
   6.104  0.4070E+00  0.3493E+01
   6.114  0.4076E+00  0.3497E+01
   6.124  0.4081E+00  0.3501E+01
   6.134  0.4087E+00  0.3506E+01
   6.144  0.4092E+00  0.3510E+01
   6.154  0.4097E+00  0.3514E+01
   6.164  0.4103E+00  0.3518E+01
   6.174  0.4108E+00  0.3522E+01
   6.184  0.4113E+00  0.3526E+01
   6.194  0.4118E+00  0.3530E+01
   6.204  0.4123E+00  0.3534E+01
   6.214  0.4128E+00  0.3538E+01
   6.224  0.4132E+00  0.3543E+01
   6.234  0.4137E+00  0.3547E+01
   6.244  0.4142E+00  0.3551E+01
   6.254  0.4146E+00  0.3555E+01
   6.264  0.4150E+00  0.3559E+01
   6.274  0.4154E+00  0.3563E+01
   6.284  0.4158E+00  0.3567E+01
   6.294  0.4162E+00  0.3572E+01
   6.304  0.4165E+00  0.3576E+01
   6.314  0.4169E+00  0.3580E+01
   6.324  0.4172E+00  0.3584E+01
   6.334  0.4175E+00  0.3588E+01
   6.344  0.4178E+00  0.3592E+01
   6.354  0.4181E+00  0.3597E+01
   6.364  0.4183E+00  0.3601E+01
   6.374  0.4186E+00  0.3605E+01
   6.384  0.4188E+00  0.3609E+01
   6.394  0.4190E+00  0.3613E+01
   6.404  0.4191E+00  0.3618E+01
   6.414  0.4193E+00  0.3622E+01
   6.424  0.4195E+00  0.3626E+01
   6.434  0.4196E+00  0.3630E+01
   6.444  0.4197E+00  0.3634E+01
   6.454  0.4198E+00  0.3639E+01
   6.464  0.4198E+00  0.3643E+01
   6.474  0.4199E+00  0.3647E+01
   6.484  0.4199E+00  0.3651E+01
   6.494  0.4200E+00  0.3655E+01
   6.504  0.4200E+00  0.3660E+01
   6.514  0.4199E+00  0.3664E+01
   6.524  0.4199E+00  0.3668E+01
   6.534  0.4199E+00  0.3672E+01
   6.544  0.4198E+00  0.3676E+01
   6.554  0.4198E+00  0.3681E+01
   6.564  0.4197E+00  0.3685E+01
   6.574  0.4196E+00  0.3689E+01
   6.584  0.4195E+00  0.3693E+01
   6.594  0.4194E+00  0.3697E+01
   6.604  0.4192E+00  0.3702E+01
   6.614  0.4191E+00  0.3706E+01
   6.624  0.4190E+00  0.3710E+01
   6.634  0.4188E+00  0.3714E+01
   6.644  0.4186E+00  0.3718E+01
   6.654  0.4185E+00  0.3722E+01
   6.664  0.4183E+00  0.3727E+01
   6.674  0.4181E+00  0.3731E+01
   6.684  0.4180E+00  0.3735E+01
   6.694  0.4178E+00  0.3739E+01
   6.704  0.4176E+00  0.3743E+01
   6.714  0.4174E+00  0.3748E+01
   6.724  0.4172E+00  0.3752E+01
   6.734  0.4171E+00  0.3756E+01
   6.744  0.4169E+00  0.3760E+01
   6.754  0.4167E+00  0.3764E+01
   6.764  0.4165E+00  0.3768E+01
   6.774  0.4164E+00  0.3773E+01
   6.784  0.4162E+00  0.3777E+01
   6.794  0.4160E+00  0.3781E+01
   6.804  0.4159E+00  0.3785E+01
   6.814  0.4157E+00  0.3789E+01
   6.824  0.4156E+00  0.3793E+01
   6.834  0.4155E+00  0.3798E+01
   6.844  0.4154E+00  0.3802E+01
   6.854  0.4153E+00  0.3806E+01
   6.864  0.4152E+00  0.3810E+01
   6.874  0.4151E+00  0.3814E+01
   6.884  0.4150E+00  0.3818E+01
   6.894  0.4149E+00  0.3822E+01
   6.904  0.4149E+00  0.3827E+01
   6.914  0.4149E+00  0.3831E+01
   6.924  0.4148E+00  0.3835E+01
   6.934  0.4148E+00  0.3839E+01
   6.944  0.4148E+00  0.3843E+01
   6.954  0.4149E+00  0.3847E+01
   6.964  0.4149E+00  0.3851E+01
   6.974  0.4150E+00  0.3856E+01
   6.984  0.4150E+00  0.3860E+01
   6.994  0.4151E+00  0.3864E+01
   7.004  0.4152E+00  0.3868E+01
   7.014  0.4153E+00  0.3872E+01
   7.024  0.4155E+00  0.3876E+01
   7.034  0.4156E+00  0.3881E+01
   7.044  0.4158E+00  0.3885E+01
   7.054  0.4160E+00  0.3889E+01
   7.064  0.4162E+00  0.3893E+01
   7.074  0.4164E+00  0.3897E+01
   7.084  0.4166E+00  0.3901E+01
   7.094  0.4169E+00  0.3906E+01
   7.104  0.4171E+00  0.3910E+01
   7.114  0.4174E+00  0.3914E+01
   7.124  0.4177E+00  0.3918E+01
   7.134  0.4180E+00  0.3922E+01
   7.144  0.4184E+00  0.3926E+01
   7.154  0.4187E+00  0.3931E+01
   7.164  0.4191E+00  0.3935E+01
   7.174  0.4195E+00  0.3939E+01
   7.184  0.4198E+00  0.3943E+01
   7.194  0.4202E+00  0.3947E+01
   7.204  0.4207E+00  0.3952E+01
   7.214  0.4211E+00  0.3956E+01
   7.224  0.4215E+00  0.3960E+01
   7.234  0.4220E+00  0.3964E+01
   7.244  0.4224E+00  0.3968E+01
   7.254  0.4229E+00  0.3973E+01
   7.264  0.4234E+00  0.3977E+01
   7.274  0.4239E+00  0.3981E+01
   7.284  0.4244E+00  0.3985E+01
   7.294  0.4249E+00  0.3990E+01
   7.304  0.4254E+00  0.3994E+01
   7.314  0.4260E+00  0.3998E+01
   7.324  0.4265E+00  0.4002E+01
   7.334  0.4270E+00  0.4007E+01
   7.344  0.4276E+00  0.4011E+01
   7.354  0.4281E+00  0.4015E+01
   7.364  0.4287E+00  0.4020E+01
   7.374  0.4292E+00  0.4024E+01
   7.384  0.4298E+00  0.4028E+01
   7.394  0.4303E+00  0.4032E+01
   7.404  0.4309E+00  0.4037E+01
   7.414  0.4314E+00  0.4041E+01
   7.424  0.4320E+00  0.4045E+01
   7.434  0.4325E+00  0.4050E+01
   7.444  0.4331E+00  0.4054E+01
   7.454  0.4336E+00  0.4058E+01
   7.464  0.4342E+00  0.4063E+01
   7.474  0.4347E+00  0.4067E+01
   7.484  0.4352E+00  0.4071E+01
   7.494  0.4358E+00  0.4076E+01
   7.504  0.4363E+00  0.4080E+01
   7.514  0.4368E+00  0.4084E+01
   7.524  0.4373E+00  0.4089E+01
   7.534  0.4378E+00  0.4093E+01
   7.544  0.4383E+00  0.4098E+01
   7.554  0.4387E+00  0.4102E+01
   7.564  0.4392E+00  0.4106E+01
   7.574  0.4396E+00  0.4111E+01
   7.584  0.4401E+00  0.4115E+01
   7.594  0.4405E+00  0.4120E+01
   7.604  0.4409E+00  0.4124E+01
   7.614  0.4412E+00  0.4128E+01
   7.624  0.4416E+00  0.4133E+01
   7.634  0.4420E+00  0.4137E+01
   7.644  0.4423E+00  0.4142E+01
   7.654  0.4426E+00  0.4146E+01
   7.664  0.4429E+00  0.4151E+01
   7.674  0.4432E+00  0.4155E+01
   7.684  0.4434E+00  0.4159E+01
   7.694  0.4437E+00  0.4164E+01
   7.704  0.4439E+00  0.4168E+01
   7.714  0.4441E+00  0.4173E+01
   7.724  0.4443E+00  0.4177E+01
   7.734  0.4444E+00  0.4182E+01
   7.744  0.4446E+00  0.4186E+01
   7.754  0.4447E+00  0.4191E+01
   7.764  0.4448E+00  0.4195E+01
   7.774  0.4449E+00  0.4199E+01
   7.784  0.4449E+00  0.4204E+01
   7.794  0.4449E+00  0.4208E+01
   7.804  0.4450E+00  0.4213E+01
   7.814  0.4449E+00  0.4217E+01
   7.824  0.4449E+00  0.4222E+01
   7.834  0.4449E+00  0.4226E+01
   7.844  0.4448E+00  0.4231E+01
   7.854  0.4447E+00  0.4235E+01
   7.864  0.4446E+00  0.4239E+01
   7.874  0.4444E+00  0.4244E+01
   7.884  0.4443E+00  0.4248E+01
   7.894  0.4441E+00  0.4253E+01
   7.904  0.4439E+00  0.4257E+01
   7.914  0.4437E+00  0.4262E+01
   7.924  0.4435E+00  0.4266E+01
   7.934  0.4433E+00  0.4271E+01
   7.944  0.4430E+00  0.4275E+01
   7.954  0.4427E+00  0.4279E+01
   7.964  0.4424E+00  0.4284E+01
   7.974  0.4421E+00  0.4288E+01
   7.984  0.4418E+00  0.4293E+01
   7.994  0.4415E+00  0.4297E+01
   8.004  0.4412E+00  0.4301E+01
   8.014  0.4408E+00  0.4306E+01
   8.024  0.4404E+00  0.4310E+01
   8.034  0.4401E+00  0.4315E+01
   8.044  0.4397E+00  0.4319E+01
   8.054  0.4393E+00  0.4323E+01
   8.064  0.4389E+00  0.4328E+01
   8.074  0.4385E+00  0.4332E+01
   8.084  0.4381E+00  0.4337E+01
   8.094  0.4376E+00  0.4341E+01
   8.104  0.4372E+00  0.4345E+01
   8.114  0.4368E+00  0.4350E+01
   8.124  0.4363E+00  0.4354E+01
   8.134  0.4359E+00  0.4358E+01
   8.144  0.4355E+00  0.4363E+01
   8.154  0.4350E+00  0.4367E+01
   8.164  0.4346E+00  0.4372E+01
   8.174  0.4341E+00  0.4376E+01
   8.184  0.4337E+00  0.4380E+01
   8.194  0.4332E+00  0.4385E+01
   8.204  0.4327E+00  0.4389E+01
   8.214  0.4323E+00  0.4393E+01
   8.224  0.4318E+00  0.4397E+01
   8.234  0.4314E+00  0.4402E+01
   8.244  0.4309E+00  0.4406E+01
   8.254  0.4304E+00  0.4410E+01
   8.264  0.4300E+00  0.4415E+01
   8.274  0.4295E+00  0.4419E+01
   8.284  0.4290E+00  0.4423E+01
   8.294  0.4286E+00  0.4428E+01
   8.304  0.4281E+00  0.4432E+01
   8.314  0.4277E+00  0.4436E+01
   8.324  0.4272E+00  0.4440E+01
   8.334  0.4267E+00  0.4445E+01
   8.344  0.4263E+00  0.4449E+01
   8.354  0.4258E+00  0.4453E+01
   8.364  0.4254E+00  0.4457E+01
   8.374  0.4249E+00  0.4462E+01
   8.384  0.4244E+00  0.4466E+01
   8.394  0.4240E+00  0.4470E+01
   8.404  0.4235E+00  0.4474E+01
   8.414  0.4231E+00  0.4479E+01
   8.424  0.4226E+00  0.4483E+01
   8.434  0.4221E+00  0.4487E+01
   8.444  0.4217E+00  0.4491E+01
   8.454  0.4212E+00  0.4496E+01
   8.464  0.4207E+00  0.4500E+01
   8.474  0.4203E+00  0.4504E+01
   8.484  0.4198E+00  0.4508E+01
   8.494  0.4193E+00  0.4512E+01
   8.504  0.4189E+00  0.4517E+01
   8.514  0.4184E+00  0.4521E+01
   8.524  0.4179E+00  0.4525E+01
   8.534  0.4175E+00  0.4529E+01
   8.544  0.4170E+00  0.4533E+01
   8.554  0.4165E+00  0.4537E+01
   8.564  0.4161E+00  0.4542E+01
   8.574  0.4156E+00  0.4546E+01
   8.584  0.4151E+00  0.4550E+01
   8.594  0.4147E+00  0.4554E+01
   8.604  0.4142E+00  0.4558E+01
   8.614  0.4138E+00  0.4562E+01
   8.624  0.4133E+00  0.4566E+01
   8.634  0.4129E+00  0.4571E+01
   8.644  0.4124E+00  0.4575E+01
   8.654  0.4120E+00  0.4579E+01
   8.664  0.4116E+00  0.4583E+01
   8.674  0.4112E+00  0.4587E+01
   8.684  0.4107E+00  0.4591E+01
   8.694  0.4103E+00  0.4595E+01
   8.704  0.4099E+00  0.4599E+01
   8.714  0.4096E+00  0.4603E+01
   8.724  0.4092E+00  0.4608E+01
   8.734  0.4088E+00  0.4612E+01
   8.744  0.4085E+00  0.4616E+01
   8.754  0.4081E+00  0.4620E+01
   8.764  0.4078E+00  0.4624E+01
   8.774  0.4075E+00  0.4628E+01
   8.784  0.4073E+00  0.4632E+01
   8.794  0.4070E+00  0.4636E+01
   8.804  0.4067E+00  0.4640E+01
   8.814  0.4065E+00  0.4644E+01
   8.824  0.4063E+00  0.4648E+01
   8.834  0.4061E+00  0.4652E+01
   8.844  0.4060E+00  0.4656E+01
   8.854  0.4058E+00  0.4660E+01
   8.864  0.4057E+00  0.4665E+01
   8.874  0.4056E+00  0.4669E+01
   8.884  0.4056E+00  0.4673E+01
   8.894  0.4055E+00  0.4677E+01
   8.904  0.4055E+00  0.4681E+01
   8.914  0.4056E+00  0.4685E+01
   8.924  0.4056E+00  0.4689E+01
   8.934  0.4057E+00  0.4693E+01
   8.944  0.4058E+00  0.4697E+01
   8.954  0.4059E+00  0.4701E+01
   8.964  0.4061E+00  0.4705E+01
   8.974  0.4063E+00  0.4709E+01
   8.984  0.4065E+00  0.4713E+01
   8.994  0.4067E+00  0.4717E+01
   9.004  0.4070E+00  0.4721E+01
   9.014  0.4073E+00  0.4725E+01
   9.024  0.4077E+00  0.4729E+01
   9.034  0.4080E+00  0.4734E+01
   9.044  0.4084E+00  0.4738E+01
   9.054  0.4088E+00  0.4742E+01
   9.064  0.4093E+00  0.4746E+01
   9.074  0.4097E+00  0.4750E+01
   9.084  0.4102E+00  0.4754E+01
   9.094  0.4107E+00  0.4758E+01
   9.104  0.4112E+00  0.4762E+01
   9.114  0.4118E+00  0.4766E+01
   9.124  0.4124E+00  0.4770E+01
   9.134  0.4130E+00  0.4775E+01
   9.144  0.4136E+00  0.4779E+01
   9.154  0.4142E+00  0.4783E+01
   9.164  0.4148E+00  0.4787E+01
   9.174  0.4155E+00  0.4791E+01
   9.184  0.4162E+00  0.4795E+01
   9.194  0.4168E+00  0.4800E+01
   9.204  0.4175E+00  0.4804E+01
   9.214  0.4182E+00  0.4808E+01
   9.224  0.4189E+00  0.4812E+01
   9.234  0.4196E+00  0.4816E+01
   9.244  0.4203E+00  0.4820E+01
   9.254  0.4210E+00  0.4825E+01
   9.264  0.4217E+00  0.4829E+01
   9.274  0.4224E+00  0.4833E+01
   9.284  0.4231E+00  0.4837E+01
   9.294  0.4238E+00  0.4842E+01
   9.304  0.4245E+00  0.4846E+01
   9.314  0.4252E+00  0.4850E+01
   9.324  0.4259E+00  0.4854E+01
   9.334  0.4266E+00  0.4859E+01
   9.344  0.4272E+00  0.4863E+01
   9.354  0.4279E+00  0.4867E+01
   9.364  0.4285E+00  0.4871E+01
   9.374  0.4291E+00  0.4876E+01
   9.384  0.4297E+00  0.4880E+01
   9.394  0.4303E+00  0.4884E+01
   9.404  0.4309E+00  0.4889E+01
   9.414  0.4314E+00  0.4893E+01
   9.424  0.4320E+00  0.4897E+01
   9.434  0.4325E+00  0.4902E+01
   9.444  0.4330E+00  0.4906E+01
   9.454  0.4335E+00  0.4910E+01
   9.464  0.4339E+00  0.4915E+01
   9.474  0.4344E+00  0.4919E+01
   9.484  0.4348E+00  0.4923E+01
   9.494  0.4352E+00  0.4928E+01
   9.504  0.4356E+00  0.4932E+01
   9.514  0.4360E+00  0.4936E+01
   9.524  0.4363E+00  0.4941E+01
   9.534  0.4367E+00  0.4945E+01
   9.544  0.4370E+00  0.4949E+01
   9.554  0.4373E+00  0.4954E+01
   9.564  0.4376E+00  0.4958E+01
   9.574  0.4379E+00  0.4963E+01
   9.584  0.4381E+00  0.4967E+01
   9.594  0.4384E+00  0.4971E+01
   9.604  0.4386E+00  0.4976E+01
   9.614  0.4388E+00  0.4980E+01
   9.624  0.4390E+00  0.4985E+01
   9.634  0.4392E+00  0.4989E+01
   9.644  0.4394E+00  0.4993E+01
   9.654  0.4396E+00  0.4998E+01
   9.664  0.4398E+00  0.5002E+01
   9.674  0.4400E+00  0.5007E+01
   9.684  0.4401E+00  0.5011E+01
   9.694  0.4403E+00  0.5015E+01
   9.704  0.4405E+00  0.5020E+01
   9.714  0.4406E+00  0.5024E+01
   9.724  0.4408E+00  0.5029E+01
   9.734  0.4410E+00  0.5033E+01
   9.744  0.4412E+00  0.5037E+01
   9.754  0.4413E+00  0.5042E+01
   9.764  0.4415E+00  0.5046E+01
   9.774  0.4417E+00  0.5051E+01
   9.784  0.4419E+00  0.5055E+01
   9.794  0.4421E+00  0.5059E+01
   9.804  0.4423E+00  0.5064E+01
   9.814  0.4425E+00  0.5068E+01
   9.824  0.4427E+00  0.5073E+01
   9.834  0.4429E+00  0.5077E+01
   9.844  0.4432E+00  0.5082E+01
   9.854  0.4434E+00  0.5086E+01
   9.864  0.4437E+00  0.5090E+01
   9.874  0.4439E+00  0.5095E+01
   9.884  0.4442E+00  0.5099E+01
   9.894  0.4445E+00  0.5104E+01
   9.904  0.4448E+00  0.5108E+01
   9.914  0.4451E+00  0.5113E+01
   9.924  0.4454E+00  0.5117E+01
   9.934  0.4458E+00  0.5122E+01
   9.944  0.4461E+00  0.5126E+01
   9.954  0.4465E+00  0.5131E+01
   9.964  0.4468E+00  0.5135E+01
   9.974  0.4472E+00  0.5139E+01
   9.984  0.4476E+00  0.5144E+01
   9.994  0.4480E+00  0.5148E+01
  10.004  0.4484E+00  0.5153E+01
  10.014  0.4488E+00  0.5157E+01
  10.024  0.4492E+00  0.5162E+01
  10.034  0.4496E+00  0.5166E+01
  10.044  0.4500E+00  0.5171E+01
  10.054  0.4504E+00  0.5175E+01
  10.064  0.4509E+00  0.5180E+01
  10.074  0.4513E+00  0.5184E+01
  10.084  0.4517E+00  0.5189E+01
  10.094  0.4521E+00  0.5193E+01
  10.104  0.4526E+00  0.5198E+01
  10.114  0.4530E+00  0.5202E+01
  10.124  0.4534E+00  0.5207E+01
  10.134  0.4538E+00  0.5212E+01
  10.144  0.4542E+00  0.5216E+01
  10.154  0.4546E+00  0.5221E+01
  10.164  0.4550E+00  0.5225E+01
  10.174  0.4554E+00  0.5230E+01
  10.184  0.4558E+00  0.5234E+01
  10.194  0.4562E+00  0.5239E+01
  10.204  0.4566E+00  0.5243E+01
  10.214  0.4570E+00  0.5248E+01
  10.224  0.4573E+00  0.5253E+01
  10.234  0.4577E+00  0.5257E+01
  10.244  0.4580E+00  0.5262E+01
  10.254  0.4583E+00  0.5266E+01
  10.264  0.4587E+00  0.5271E+01
  10.274  0.4590E+00  0.5276E+01
  10.284  0.4593E+00  0.5280E+01
  10.294  0.4596E+00  0.5285E+01
  10.304  0.4598E+00  0.5289E+01
  10.314  0.4601E+00  0.5294E+01
  10.324  0.4604E+00  0.5298E+01
  10.334  0.4606E+00  0.5303E+01
  10.344  0.4609E+00  0.5308E+01
  10.354  0.4611E+00  0.5312E+01
  10.364  0.4613E+00  0.5317E+01
  10.374  0.4615E+00  0.5322E+01
  10.384  0.4617E+00  0.5326E+01
  10.394  0.4620E+00  0.5331E+01
  10.404  0.4622E+00  0.5335E+01
  10.414  0.4624E+00  0.5340E+01
  10.424  0.4626E+00  0.5345E+01
  10.434  0.4628E+00  0.5349E+01
  10.444  0.4630E+00  0.5354E+01
  10.454  0.4632E+00  0.5359E+01
  10.464  0.4634E+00  0.5363E+01
  10.474  0.4636E+00  0.5368E+01
  10.484  0.4638E+00  0.5372E+01
  10.494  0.4640E+00  0.5377E+01
  10.504  0.4642E+00  0.5382E+01
  10.514  0.4645E+00  0.5386E+01
  10.524  0.4647E+00  0.5391E+01
  10.534  0.4650E+00  0.5396E+01
  10.544  0.4652E+00  0.5400E+01
  10.554  0.4655E+00  0.5405E+01
  10.564  0.4658E+00  0.5410E+01
  10.574  0.4661E+00  0.5414E+01
  10.584  0.4665E+00  0.5419E+01
  10.594  0.4668E+00  0.5424E+01
  10.604  0.4672E+00  0.5428E+01
  10.614  0.4676E+00  0.5433E+01
  10.624  0.4680E+00  0.5438E+01
  10.634  0.4684E+00  0.5442E+01
  10.644  0.4689E+00  0.5447E+01
  10.654  0.4693E+00  0.5452E+01
  10.664  0.4698E+00  0.5456E+01
  10.674  0.4704E+00  0.5461E+01
  10.684  0.4709E+00  0.5466E+01
  10.694  0.4715E+00  0.5471E+01
  10.704  0.4721E+00  0.5475E+01
  10.714  0.4727E+00  0.5480E+01
  10.724  0.4734E+00  0.5485E+01
  10.734  0.4741E+00  0.5489E+01
  10.744  0.4748E+00  0.5494E+01
  10.754  0.4755E+00  0.5499E+01
  10.764  0.4763E+00  0.5504E+01
  10.774  0.4771E+00  0.5509E+01
  10.784  0.4779E+00  0.5513E+01
  10.794  0.4787E+00  0.5518E+01
  10.804  0.4796E+00  0.5523E+01
  10.814  0.4805E+00  0.5528E+01
  10.824  0.4814E+00  0.5532E+01
  10.834  0.4823E+00  0.5537E+01
  10.844  0.4833E+00  0.5542E+01
  10.854  0.4842E+00  0.5547E+01
  10.864  0.4852E+00  0.5552E+01
  10.874  0.4862E+00  0.5557E+01
  10.884  0.4872E+00  0.5562E+01
  10.894  0.4882E+00  0.5566E+01
  10.904  0.4892E+00  0.5571E+01
  10.914  0.4903E+00  0.5576E+01
  10.924  0.4913E+00  0.5581E+01
  10.934  0.4923E+00  0.5586E+01
  10.944  0.4934E+00  0.5591E+01
  10.954  0.4944E+00  0.5596E+01
  10.964  0.4955E+00  0.5601E+01
  10.974  0.4965E+00  0.5606E+01
  10.984  0.4976E+00  0.5611E+01
  10.994  0.4986E+00  0.5616E+01
  11.004  0.4996E+00  0.5621E+01
  11.014  0.5006E+00  0.5626E+01
  11.024  0.5016E+00  0.5631E+01
  11.034  0.5026E+00  0.5636E+01
  11.044  0.5036E+00  0.5641E+01
  11.054  0.5045E+00  0.5646E+01
  11.064  0.5055E+00  0.5651E+01
  11.074  0.5064E+00  0.5656E+01
  11.084  0.5073E+00  0.5661E+01
  11.094  0.5081E+00  0.5666E+01
  11.104  0.5090E+00  0.5671E+01
  11.114  0.5098E+00  0.5676E+01
  11.124  0.5106E+00  0.5682E+01
  11.134  0.5113E+00  0.5687E+01
  11.144  0.5121E+00  0.5692E+01
  11.154  0.5127E+00  0.5697E+01
  11.164  0.5134E+00  0.5702E+01
  11.174  0.5140E+00  0.5707E+01
  11.184  0.5146E+00  0.5712E+01
  11.194  0.5152E+00  0.5717E+01
  11.204  0.5157E+00  0.5723E+01
  11.214  0.5162E+00  0.5728E+01
  11.224  0.5166E+00  0.5733E+01
  11.234  0.5170E+00  0.5738E+01
  11.244  0.5174E+00  0.5743E+01
  11.254  0.5178E+00  0.5748E+01
  11.264  0.5181E+00  0.5754E+01
  11.274  0.5184E+00  0.5759E+01
  11.284  0.5186E+00  0.5764E+01
  11.294  0.5188E+00  0.5769E+01
  11.304  0.5190E+00  0.5774E+01
  11.314  0.5192E+00  0.5780E+01
  11.324  0.5193E+00  0.5785E+01
  11.334  0.5194E+00  0.5790E+01
  11.344  0.5194E+00  0.5795E+01
  11.354  0.5195E+00  0.5800E+01
  11.364  0.5195E+00  0.5806E+01
  11.374  0.5195E+00  0.5811E+01
  11.384  0.5195E+00  0.5816E+01
  11.394  0.5194E+00  0.5821E+01
  11.404  0.5194E+00  0.5826E+01
  11.414  0.5193E+00  0.5832E+01
  11.424  0.5192E+00  0.5837E+01
  11.434  0.5191E+00  0.5842E+01
  11.444  0.5190E+00  0.5847E+01
  11.454  0.5189E+00  0.5852E+01
  11.464  0.5188E+00  0.5857E+01
  11.474  0.5186E+00  0.5863E+01
  11.484  0.5185E+00  0.5868E+01
  11.494  0.5184E+00  0.5873E+01
  11.504  0.5182E+00  0.5878E+01
  11.514  0.5181E+00  0.5883E+01
  11.524  0.5180E+00  0.5889E+01
  11.534  0.5179E+00  0.5894E+01
  11.544  0.5178E+00  0.5899E+01
  11.554  0.5177E+00  0.5904E+01
  11.564  0.5177E+00  0.5909E+01
  11.574  0.5176E+00  0.5914E+01
  11.584  0.5176E+00  0.5920E+01
  11.594  0.5175E+00  0.5925E+01
  11.604  0.5175E+00  0.5930E+01
  11.614  0.5176E+00  0.5935E+01
  11.624  0.5176E+00  0.5940E+01
  11.634  0.5177E+00  0.5946E+01
  11.644  0.5178E+00  0.5951E+01
  11.654  0.5179E+00  0.5956E+01
  11.664  0.5181E+00  0.5961E+01
  11.674  0.5182E+00  0.5966E+01
  11.684  0.5184E+00  0.5971E+01
  11.694  0.5187E+00  0.5977E+01
  11.704  0.5189E+00  0.5982E+01
  11.714  0.5192E+00  0.5987E+01
  11.724  0.5196E+00  0.5992E+01
  11.734  0.5199E+00  0.5997E+01
  11.744  0.5203E+00  0.6003E+01
  11.754  0.5207E+00  0.6008E+01
  11.764  0.5212E+00  0.6013E+01
  11.774  0.5217E+00  0.6018E+01
  11.784  0.5222E+00  0.6023E+01
  11.794  0.5227E+00  0.6029E+01
  11.804  0.5233E+00  0.6034E+01
  11.814  0.5238E+00  0.6039E+01
  11.824  0.5245E+00  0.6044E+01
  11.834  0.5251E+00  0.6050E+01
  11.844  0.5258E+00  0.6055E+01
  11.854  0.5265E+00  0.6060E+01
  11.864  0.5272E+00  0.6065E+01
  11.874  0.5279E+00  0.6071E+01
  11.884  0.5287E+00  0.6076E+01
  11.894  0.5294E+00  0.6081E+01
  11.904  0.5302E+00  0.6087E+01
  11.914  0.5311E+00  0.6092E+01
  11.924  0.5319E+00  0.6097E+01
  11.934  0.5327E+00  0.6103E+01
  11.944  0.5336E+00  0.6108E+01
  11.954  0.5344E+00  0.6113E+01
  11.964  0.5353E+00  0.6119E+01
  11.974  0.5362E+00  0.6124E+01
  11.984  0.5371E+00  0.6129E+01
  11.994  0.5380E+00  0.6135E+01
  12.004  0.5389E+00  0.6140E+01
  12.014  0.5398E+00  0.6146E+01
  12.024  0.5407E+00  0.6151E+01
  12.034  0.5416E+00  0.6156E+01
  12.044  0.5425E+00  0.6162E+01
  12.054  0.5434E+00  0.6167E+01
  12.064  0.5442E+00  0.6173E+01
  12.074  0.5451E+00  0.6178E+01
  12.084  0.5460E+00  0.6184E+01
  12.094  0.5469E+00  0.6189E+01
  12.104  0.5478E+00  0.6194E+01
  12.114  0.5486E+00  0.6200E+01
  12.124  0.5495E+00  0.6205E+01
  12.134  0.5503E+00  0.6211E+01
  12.144  0.5511E+00  0.6216E+01
  12.154  0.5519E+00  0.6222E+01
  12.164  0.5527E+00  0.6228E+01
  12.174  0.5535E+00  0.6233E+01
  12.184  0.5543E+00  0.6239E+01
  12.194  0.5551E+00  0.6244E+01
  12.204  0.5558E+00  0.6250E+01
  12.214  0.5566E+00  0.6255E+01
  12.224  0.5573E+00  0.6261E+01
  12.234  0.5580E+00  0.6266E+01
  12.244  0.5587E+00  0.6272E+01
  12.254  0.5594E+00  0.6278E+01
  12.264  0.5601E+00  0.6283E+01
  12.274  0.5607E+00  0.6289E+01
  12.284  0.5614E+00  0.6294E+01
  12.294  0.5620E+00  0.6300E+01
  12.304  0.5626E+00  0.6306E+01
  12.314  0.5632E+00  0.6311E+01
  12.324  0.5638E+00  0.6317E+01
  12.334  0.5644E+00  0.6323E+01
  12.344  0.5650E+00  0.6328E+01
  12.354  0.5655E+00  0.6334E+01
  12.364  0.5661E+00  0.6340E+01
  12.374  0.5666E+00  0.6345E+01
  12.384  0.5672E+00  0.6351E+01
  12.394  0.5677E+00  0.6357E+01
  12.404  0.5682E+00  0.6362E+01
  12.414  0.5687E+00  0.6368E+01
  12.424  0.5692E+00  0.6374E+01
  12.434  0.5697E+00  0.6379E+01
  12.444  0.5702E+00  0.6385E+01
  12.454  0.5707E+00  0.6391E+01
  12.464  0.5712E+00  0.6396E+01
  12.474  0.5717E+00  0.6402E+01
  12.484  0.5722E+00  0.6408E+01
  12.494  0.5727E+00  0.6414E+01
  12.504  0.5732E+00  0.6419E+01
  12.514  0.5737E+00  0.6425E+01
  12.524  0.5742E+00  0.6431E+01
  12.534  0.5747E+00  0.6437E+01
  12.544  0.5752E+00  0.6442E+01
  12.554  0.5756E+00  0.6448E+01
  12.564  0.5761E+00  0.6454E+01
  12.574  0.5766E+00  0.6460E+01
  12.584  0.5771E+00  0.6465E+01
  12.594  0.5776E+00  0.6471E+01
  12.604  0.5781E+00  0.6477E+01
  12.614  0.5786E+00  0.6483E+01
  12.624  0.5792E+00  0.6489E+01
  12.634  0.5797E+00  0.6494E+01
  12.644  0.5802E+00  0.6500E+01
  12.654  0.5807E+00  0.6506E+01
  12.664  0.5812E+00  0.6512E+01
  12.674  0.5818E+00  0.6518E+01
  12.684  0.5823E+00  0.6523E+01
  12.694  0.5828E+00  0.6529E+01
  12.704  0.5834E+00  0.6535E+01
  12.714  0.5839E+00  0.6541E+01
  12.724  0.5845E+00  0.6547E+01
  12.734  0.5851E+00  0.6553E+01
  12.744  0.5856E+00  0.6558E+01
  12.754  0.5862E+00  0.6564E+01
  12.764  0.5868E+00  0.6570E+01
  12.774  0.5874E+00  0.6576E+01
  12.784  0.5879E+00  0.6582E+01
  12.794  0.5885E+00  0.6588E+01
  12.804  0.5891E+00  0.6594E+01
  12.814  0.5897E+00  0.6600E+01
  12.824  0.5904E+00  0.6605E+01
  12.834  0.5910E+00  0.6611E+01
  12.844  0.5916E+00  0.6617E+01
  12.854  0.5923E+00  0.6623E+01
  12.864  0.5929E+00  0.6629E+01
  12.874  0.5935E+00  0.6635E+01
  12.884  0.5942E+00  0.6641E+01
  12.894  0.5949E+00  0.6647E+01
  12.904  0.5956E+00  0.6653E+01
  12.914  0.5963E+00  0.6659E+01
  12.924  0.5970E+00  0.6665E+01
  12.934  0.5977E+00  0.6671E+01
  12.944  0.5984E+00  0.6677E+01
  12.954  0.5992E+00  0.6683E+01
  12.964  0.5999E+00  0.6689E+01
  12.974  0.6007E+00  0.6695E+01
  12.984  0.6015E+00  0.6701E+01
  12.994  0.6023E+00  0.6707E+01
  13.004  0.6031E+00  0.6713E+01
  13.014  0.6040E+00  0.6719E+01
  13.024  0.6049E+00  0.6725E+01
  13.034  0.6057E+00  0.6731E+01
  13.044  0.6067E+00  0.6737E+01
  13.054  0.6076E+00  0.6743E+01
  13.064  0.6086E+00  0.6749E+01
  13.074  0.6095E+00  0.6755E+01
  13.084  0.6106E+00  0.6761E+01
  13.094  0.6116E+00  0.6768E+01
  13.104  0.6127E+00  0.6774E+01
  13.114  0.6138E+00  0.6780E+01
  13.124  0.6149E+00  0.6786E+01
  13.134  0.6161E+00  0.6792E+01
  13.144  0.6173E+00  0.6798E+01
  13.154  0.6185E+00  0.6805E+01
  13.164  0.6197E+00  0.6811E+01
  13.174  0.6210E+00  0.6817E+01
  13.184  0.6224E+00  0.6823E+01
  13.194  0.6238E+00  0.6829E+01
  13.204  0.6252E+00  0.6836E+01
  13.214  0.6266E+00  0.6842E+01
  13.224  0.6281E+00  0.6848E+01
  13.234  0.6296E+00  0.6855E+01
  13.244  0.6312E+00  0.6861E+01
  13.254  0.6328E+00  0.6867E+01
  13.264  0.6344E+00  0.6873E+01
  13.274  0.6361E+00  0.6880E+01
  13.284  0.6378E+00  0.6886E+01
  13.294  0.6395E+00  0.6893E+01
  13.304  0.6413E+00  0.6899E+01
  13.314  0.6432E+00  0.6905E+01
  13.324  0.6450E+00  0.6912E+01
  13.334  0.6469E+00  0.6918E+01
  13.344  0.6488E+00  0.6925E+01
  13.354  0.6508E+00  0.6931E+01
  13.364  0.6528E+00  0.6938E+01
  13.374  0.6548E+00  0.6944E+01
  13.384  0.6569E+00  0.6951E+01
  13.394  0.6590E+00  0.6958E+01
  13.404  0.6611E+00  0.6964E+01
  13.414  0.6632E+00  0.6971E+01
  13.424  0.6654E+00  0.6978E+01
  13.434  0.6676E+00  0.6984E+01
  13.444  0.6698E+00  0.6991E+01
  13.454  0.6720E+00  0.6998E+01
  13.464  0.6742E+00  0.7004E+01
  13.474  0.6765E+00  0.7011E+01
  13.484  0.6787E+00  0.7018E+01
  13.494  0.6810E+00  0.7025E+01
  13.504  0.6833E+00  0.7032E+01
  13.514  0.6855E+00  0.7038E+01
  13.524  0.6878E+00  0.7045E+01
  13.534  0.6901E+00  0.7052E+01
  13.544  0.6923E+00  0.7059E+01
  13.554  0.6946E+00  0.7066E+01
  13.564  0.6968E+00  0.7073E+01
  13.574  0.6991E+00  0.7080E+01
  13.584  0.7013E+00  0.7087E+01
  13.594  0.7035E+00  0.7094E+01
  13.604  0.7056E+00  0.7101E+01
  13.614  0.7078E+00  0.7108E+01
  13.624  0.7099E+00  0.7115E+01
  13.634  0.7120E+00  0.7122E+01
  13.644  0.7140E+00  0.7130E+01
  13.654  0.7160E+00  0.7137E+01
  13.664  0.7180E+00  0.7144E+01
  13.674  0.7200E+00  0.7151E+01
  13.684  0.7218E+00  0.7158E+01
  13.694  0.7237E+00  0.7166E+01
  13.704  0.7255E+00  0.7173E+01
  13.714  0.7272E+00  0.7180E+01
  13.724  0.7289E+00  0.7187E+01
  13.734  0.7305E+00  0.7195E+01
  13.744  0.7321E+00  0.7202E+01
  13.754  0.7336E+00  0.7209E+01
  13.764  0.7350E+00  0.7217E+01
  13.774  0.7364E+00  0.7224E+01
  13.784  0.7377E+00  0.7231E+01
  13.794  0.7390E+00  0.7239E+01
  13.804  0.7401E+00  0.7246E+01
  13.814  0.7412E+00  0.7254E+01
  13.824  0.7422E+00  0.7261E+01
  13.834  0.7432E+00  0.7268E+01
  13.844  0.7440E+00  0.7276E+01
  13.854  0.7448E+00  0.7283E+01
  13.864  0.7455E+00  0.7291E+01
  13.874  0.7461E+00  0.7298E+01
  13.884  0.7467E+00  0.7306E+01
  13.894  0.7471E+00  0.7313E+01
  13.904  0.7475E+00  0.7321E+01
  13.914  0.7478E+00  0.7328E+01
  13.924  0.7480E+00  0.7336E+01
  13.934  0.7481E+00  0.7343E+01
  13.944  0.7481E+00  0.7351E+01
  13.954  0.7480E+00  0.7358E+01
  13.964  0.7479E+00  0.7366E+01
  13.974  0.7476E+00  0.7373E+01
  13.984  0.7473E+00  0.7381E+01
  13.994  0.7469E+00  0.7388E+01
  14.004  0.7464E+00  0.7395E+01
  14.014  0.7458E+00  0.7403E+01
  14.024  0.7450E+00  0.7410E+01
  14.034  0.7443E+00  0.7418E+01
  14.044  0.7434E+00  0.7425E+01
  14.054  0.7424E+00  0.7433E+01
  14.064  0.7413E+00  0.7440E+01
  14.074  0.7402E+00  0.7447E+01
  14.084  0.7389E+00  0.7455E+01
  14.094  0.7376E+00  0.7462E+01
  14.104  0.7362E+00  0.7470E+01
  14.114  0.7347E+00  0.7477E+01
  14.124  0.7330E+00  0.7484E+01
  14.134  0.7313E+00  0.7492E+01
  14.144  0.7296E+00  0.7499E+01
  14.154  0.7277E+00  0.7506E+01
  14.164  0.7257E+00  0.7513E+01
  14.174  0.7237E+00  0.7521E+01
  14.184  0.7216E+00  0.7528E+01
  14.194  0.7193E+00  0.7535E+01
  14.204  0.7170E+00  0.7542E+01
  14.214  0.7146E+00  0.7549E+01
  14.224  0.7122E+00  0.7557E+01
  14.234  0.7096E+00  0.7564E+01
  14.244  0.7070E+00  0.7571E+01
  14.254  0.7043E+00  0.7578E+01
  14.264  0.7015E+00  0.7585E+01
  14.274  0.6986E+00  0.7592E+01
  14.284  0.6957E+00  0.7599E+01
  14.294  0.6927E+00  0.7606E+01
  14.304  0.6896E+00  0.7612E+01
  14.314  0.6864E+00  0.7619E+01
  14.324  0.6832E+00  0.7626E+01
  14.334  0.6799E+00  0.7633E+01
  14.344  0.6765E+00  0.7640E+01
  14.354  0.6731E+00  0.7646E+01
  14.364  0.6696E+00  0.7653E+01
  14.374  0.6660E+00  0.7660E+01
  14.384  0.6624E+00  0.7666E+01
  14.394  0.6587E+00  0.7673E+01
  14.404  0.6550E+00  0.7680E+01
  14.414  0.6512E+00  0.7686E+01
  14.424  0.6473E+00  0.7693E+01
  14.434  0.6434E+00  0.7699E+01
  14.444  0.6395E+00  0.7705E+01
  14.454  0.6355E+00  0.7712E+01
  14.464  0.6314E+00  0.7718E+01
  14.474  0.6274E+00  0.7724E+01
  14.484  0.6233E+00  0.7731E+01
  14.494  0.6191E+00  0.7737E+01
  14.504  0.6149E+00  0.7743E+01
  14.514  0.6107E+00  0.7749E+01
  14.524  0.6065E+00  0.7755E+01
  14.534  0.6022E+00  0.7761E+01
  14.544  0.5979E+00  0.7767E+01
  14.554  0.5936E+00  0.7773E+01
  14.564  0.5892E+00  0.7779E+01
  14.574  0.5849E+00  0.7785E+01
  14.584  0.5805E+00  0.7791E+01
  14.594  0.5761E+00  0.7796E+01
  14.604  0.5717E+00  0.7802E+01
  14.614  0.5673E+00  0.7808E+01
  14.624  0.5629E+00  0.7813E+01
  14.634  0.5585E+00  0.7819E+01
  14.644  0.5541E+00  0.7824E+01
  14.654  0.5497E+00  0.7830E+01
  14.664  0.5453E+00  0.7835E+01
  14.674  0.5409E+00  0.7841E+01
  14.684  0.5365E+00  0.7846E+01
  14.694  0.5322E+00  0.7852E+01
  14.704  0.5278E+00  0.7857E+01
  14.714  0.5235E+00  0.7862E+01
  14.724  0.5192E+00  0.7867E+01
  14.734  0.5149E+00  0.7872E+01
  14.744  0.5106E+00  0.7877E+01
  14.754  0.5064E+00  0.7883E+01
  14.764  0.5021E+00  0.7888E+01
  14.774  0.4979E+00  0.7893E+01
  14.784  0.4938E+00  0.7897E+01
  14.794  0.4897E+00  0.7902E+01
  14.804  0.4856E+00  0.7907E+01
  14.814  0.4815E+00  0.7912E+01
  14.824  0.4775E+00  0.7917E+01
  14.834  0.4735E+00  0.7922E+01
  14.844  0.4695E+00  0.7926E+01
  14.854  0.4656E+00  0.7931E+01
  14.864  0.4617E+00  0.7936E+01
  14.874  0.4579E+00  0.7940E+01
  14.884  0.4541E+00  0.7945E+01
  14.894  0.4504E+00  0.7949E+01
  14.904  0.4467E+00  0.7954E+01
  14.914  0.4430E+00  0.7958E+01
  14.924  0.4394E+00  0.7962E+01
  14.934  0.4359E+00  0.7967E+01
  14.944  0.4324E+00  0.7971E+01
  14.954  0.4289E+00  0.7975E+01
  14.964  0.4255E+00  0.7980E+01
  14.974  0.4221E+00  0.7984E+01
  14.984  0.4188E+00  0.7988E+01
  14.994  0.4155E+00  0.7992E+01
  15.004  0.4123E+00  0.7996E+01
  15.014  0.4092E+00  0.8000E+01
  15.024  0.4060E+00  0.8005E+01
  15.034  0.4030E+00  0.8009E+01
  15.044  0.3999E+00  0.8013E+01
  15.054  0.3970E+00  0.8017E+01
  15.064  0.3941E+00  0.8020E+01
  15.074  0.3912E+00  0.8024E+01
  15.084  0.3884E+00  0.8028E+01
  15.094  0.3856E+00  0.8032E+01
  15.104  0.3829E+00  0.8036E+01
  15.114  0.3802E+00  0.8040E+01
  15.124  0.3776E+00  0.8044E+01
  15.134  0.3750E+00  0.8047E+01
  15.144  0.3725E+00  0.8051E+01
  15.154  0.3700E+00  0.8055E+01
  15.164  0.3676E+00  0.8058E+01
  15.174  0.3653E+00  0.8062E+01
  15.184  0.3629E+00  0.8066E+01
  15.194  0.3607E+00  0.8069E+01
  15.204  0.3584E+00  0.8073E+01
  15.214  0.3563E+00  0.8076E+01
  15.224  0.3541E+00  0.8080E+01
  15.234  0.3521E+00  0.8083E+01
  15.244  0.3500E+00  0.8087E+01
  15.254  0.3481E+00  0.8090E+01
  15.264  0.3461E+00  0.8094E+01
  15.274  0.3442E+00  0.8097E+01
  15.284  0.3424E+00  0.8101E+01
  15.294  0.3406E+00  0.8104E+01
  15.304  0.3389E+00  0.8108E+01
  15.314  0.3372E+00  0.8111E+01
  15.324  0.3355E+00  0.8114E+01
  15.334  0.3340E+00  0.8118E+01
  15.344  0.3324E+00  0.8121E+01
  15.354  0.3309E+00  0.8124E+01
  15.364  0.3294E+00  0.8128E+01
  15.374  0.3280E+00  0.8131E+01
  15.384  0.3267E+00  0.8134E+01
  15.394  0.3253E+00  0.8137E+01
  15.404  0.3241E+00  0.8141E+01
  15.414  0.3228E+00  0.8144E+01
  15.424  0.3217E+00  0.8147E+01
  15.434  0.3205E+00  0.8150E+01
  15.444  0.3194E+00  0.8153E+01
  15.454  0.3184E+00  0.8157E+01
  15.464  0.3174E+00  0.8160E+01
  15.474  0.3164E+00  0.8163E+01
  15.484  0.3155E+00  0.8166E+01
  15.494  0.3146E+00  0.8169E+01
  15.504  0.3138E+00  0.8172E+01
  15.514  0.3130E+00  0.8176E+01
  15.524  0.3122E+00  0.8179E+01
  15.534  0.3115E+00  0.8182E+01
  15.544  0.3108E+00  0.8185E+01
  15.554  0.3101E+00  0.8188E+01
  15.564  0.3095E+00  0.8191E+01
  15.574  0.3090E+00  0.8194E+01
  15.584  0.3084E+00  0.8197E+01
  15.594  0.3079E+00  0.8200E+01
  15.604  0.3075E+00  0.8203E+01
  15.614  0.3070E+00  0.8206E+01
  15.624  0.3066E+00  0.8210E+01
  15.634  0.3063E+00  0.8213E+01
  15.644  0.3059E+00  0.8216E+01
  15.654  0.3056E+00  0.8219E+01
  15.664  0.3053E+00  0.8222E+01
  15.674  0.3051E+00  0.8225E+01
  15.684  0.3048E+00  0.8228E+01
  15.694  0.3046E+00  0.8231E+01
  15.704  0.3045E+00  0.8234E+01
  15.714  0.3043E+00  0.8237E+01
  15.724  0.3042E+00  0.8240E+01
  15.734  0.3041E+00  0.8243E+01
  15.744  0.3040E+00  0.8246E+01
  15.754  0.3039E+00  0.8249E+01
  15.764  0.3039E+00  0.8252E+01
  15.774  0.3039E+00  0.8255E+01
  15.784  0.3039E+00  0.8258E+01
  15.794  0.3039E+00  0.8261E+01
  15.804  0.3039E+00  0.8264E+01
  15.814  0.3039E+00  0.8267E+01
  15.824  0.3040E+00  0.8270E+01
  15.834  0.3041E+00  0.8273E+01
  15.844  0.3042E+00  0.8277E+01
  15.854  0.3043E+00  0.8280E+01
  15.864  0.3044E+00  0.8283E+01
  15.874  0.3045E+00  0.8286E+01
  15.884  0.3046E+00  0.8289E+01
  15.894  0.3048E+00  0.8292E+01
  15.904  0.3049E+00  0.8295E+01
  15.914  0.3051E+00  0.8298E+01
  15.924  0.3053E+00  0.8301E+01
  15.934  0.3055E+00  0.8304E+01
  15.944  0.3057E+00  0.8307E+01
  15.954  0.3059E+00  0.8310E+01
  15.964  0.3062E+00  0.8313E+01
  15.974  0.3064E+00  0.8316E+01
  15.984  0.3067E+00  0.8319E+01
  15.994  0.3069E+00  0.8322E+01
  16.004  0.3072E+00  0.8325E+01
  16.014  0.3075E+00  0.8328E+01
  16.024  0.3078E+00  0.8332E+01
  16.034  0.3081E+00  0.8335E+01
  16.044  0.3084E+00  0.8338E+01
  16.054  0.3088E+00  0.8341E+01
  16.064  0.3091E+00  0.8344E+01
  16.074  0.3095E+00  0.8347E+01
  16.084  0.3099E+00  0.8350E+01
  16.094  0.3103E+00  0.8353E+01
  16.104  0.3107E+00  0.8356E+01
  16.114  0.3111E+00  0.8359E+01
  16.124  0.3116E+00  0.8363E+01
  16.134  0.3120E+00  0.8366E+01
  16.144  0.3125E+00  0.8369E+01
  16.154  0.3130E+00  0.8372E+01
  16.164  0.3136E+00  0.8375E+01
  16.174  0.3141E+00  0.8378E+01
  16.184  0.3147E+00  0.8381E+01
  16.194  0.3153E+00  0.8384E+01
  16.204  0.3159E+00  0.8388E+01
  16.214  0.3166E+00  0.8391E+01
  16.224  0.3172E+00  0.8394E+01
  16.234  0.3179E+00  0.8397E+01
  16.244  0.3187E+00  0.8400E+01
  16.254  0.3194E+00  0.8404E+01
  16.264  0.3202E+00  0.8407E+01
  16.274  0.3210E+00  0.8410E+01
  16.284  0.3218E+00  0.8413E+01
  16.294  0.3227E+00  0.8416E+01
  16.304  0.3236E+00  0.8420E+01
  16.314  0.3246E+00  0.8423E+01
  16.324  0.3255E+00  0.8426E+01
  16.334  0.3265E+00  0.8429E+01
  16.344  0.3276E+00  0.8433E+01
  16.354  0.3287E+00  0.8436E+01
  16.364  0.3298E+00  0.8439E+01
  16.374  0.3309E+00  0.8443E+01
  16.384  0.3321E+00  0.8446E+01
  16.394  0.3333E+00  0.8449E+01
  16.404  0.3346E+00  0.8453E+01
  16.414  0.3359E+00  0.8456E+01
  16.424  0.3372E+00  0.8459E+01
  16.434  0.3386E+00  0.8463E+01
  16.444  0.3400E+00  0.8466E+01
  16.454  0.3414E+00  0.8470E+01
  16.464  0.3429E+00  0.8473E+01
  16.474  0.3444E+00  0.8476E+01
  16.484  0.3460E+00  0.8480E+01
  16.494  0.3476E+00  0.8483E+01
  16.504  0.3492E+00  0.8487E+01
  16.514  0.3509E+00  0.8490E+01
  16.524  0.3526E+00  0.8494E+01
  16.534  0.3543E+00  0.8497E+01
  16.544  0.3561E+00  0.8501E+01
  16.554  0.3579E+00  0.8505E+01
  16.564  0.3598E+00  0.8508E+01
  16.574  0.3616E+00  0.8512E+01
  16.584  0.3636E+00  0.8515E+01
  16.594  0.3655E+00  0.8519E+01
  16.604  0.3675E+00  0.8523E+01
  16.614  0.3695E+00  0.8526E+01
  16.624  0.3715E+00  0.8530E+01
  16.634  0.3736E+00  0.8534E+01
  16.644  0.3757E+00  0.8538E+01
  16.654  0.3778E+00  0.8541E+01
  16.664  0.3800E+00  0.8545E+01
  16.674  0.3821E+00  0.8549E+01
  16.684  0.3843E+00  0.8553E+01
  16.694  0.3865E+00  0.8557E+01
  16.704  0.3888E+00  0.8561E+01
  16.714  0.3910E+00  0.8565E+01
  16.724  0.3933E+00  0.8568E+01
  16.734  0.3956E+00  0.8572E+01
  16.744  0.3979E+00  0.8576E+01
  16.754  0.4002E+00  0.8580E+01
  16.764  0.4025E+00  0.8584E+01
  16.774  0.4048E+00  0.8588E+01
  16.784  0.4072E+00  0.8593E+01
  16.794  0.4095E+00  0.8597E+01
  16.804  0.4119E+00  0.8601E+01
  16.814  0.4142E+00  0.8605E+01
  16.824  0.4166E+00  0.8609E+01
  16.834  0.4189E+00  0.8613E+01
  16.844  0.4212E+00  0.8617E+01
  16.854  0.4236E+00  0.8622E+01
  16.864  0.4259E+00  0.8626E+01
  16.874  0.4282E+00  0.8630E+01
  16.884  0.4305E+00  0.8635E+01
  16.894  0.4328E+00  0.8639E+01
  16.904  0.4351E+00  0.8643E+01
  16.914  0.4374E+00  0.8648E+01
  16.924  0.4396E+00  0.8652E+01
  16.934  0.4419E+00  0.8656E+01
  16.944  0.4441E+00  0.8661E+01
  16.954  0.4462E+00  0.8665E+01
  16.964  0.4484E+00  0.8670E+01
  16.974  0.4505E+00  0.8674E+01
  16.984  0.4526E+00  0.8679E+01
  16.994  0.4547E+00  0.8683E+01
  17.004  0.4567E+00  0.8688E+01
  17.014  0.4587E+00  0.8693E+01
  17.024  0.4607E+00  0.8697E+01
  17.034  0.4626E+00  0.8702E+01
  17.044  0.4644E+00  0.8706E+01
  17.054  0.4663E+00  0.8711E+01
  17.064  0.4681E+00  0.8716E+01
  17.074  0.4698E+00  0.8720E+01
  17.084  0.4715E+00  0.8725E+01
  17.094  0.4732E+00  0.8730E+01
  17.104  0.4748E+00  0.8735E+01
  17.114  0.4763E+00  0.8739E+01
  17.124  0.4778E+00  0.8744E+01
  17.134  0.4792E+00  0.8749E+01
  17.144  0.4806E+00  0.8754E+01
  17.154  0.4820E+00  0.8759E+01
  17.164  0.4832E+00  0.8763E+01
  17.174  0.4845E+00  0.8768E+01
  17.184  0.4856E+00  0.8773E+01
  17.194  0.4867E+00  0.8778E+01
  17.204  0.4878E+00  0.8783E+01
  17.214  0.4887E+00  0.8788E+01
  17.224  0.4896E+00  0.8793E+01
  17.234  0.4905E+00  0.8798E+01
  17.244  0.4913E+00  0.8802E+01
  17.254  0.4920E+00  0.8807E+01
  17.264  0.4927E+00  0.8812E+01
  17.274  0.4933E+00  0.8817E+01
  17.284  0.4938E+00  0.8822E+01
  17.294  0.4943E+00  0.8827E+01
  17.304  0.4947E+00  0.8832E+01
  17.314  0.4950E+00  0.8837E+01
  17.324  0.4953E+00  0.8842E+01
  17.334  0.4955E+00  0.8847E+01
  17.344  0.4957E+00  0.8852E+01
  17.354  0.4958E+00  0.8857E+01
  17.364  0.4958E+00  0.8862E+01
  17.374  0.4957E+00  0.8867E+01
  17.384  0.4956E+00  0.8872E+01
  17.394  0.4955E+00  0.8877E+01
  17.404  0.4952E+00  0.8882E+01
  17.414  0.4949E+00  0.8887E+01
  17.424  0.4946E+00  0.8892E+01
  17.434  0.4942E+00  0.8896E+01
  17.444  0.4937E+00  0.8901E+01
  17.454  0.4932E+00  0.8906E+01
  17.464  0.4926E+00  0.8911E+01
  17.474  0.4920E+00  0.8916E+01
  17.484  0.4913E+00  0.8921E+01
  17.494  0.4906E+00  0.8926E+01
  17.504  0.4898E+00  0.8931E+01
  17.514  0.4889E+00  0.8936E+01
  17.524  0.4880E+00  0.8941E+01
  17.534  0.4871E+00  0.8946E+01
  17.544  0.4861E+00  0.8950E+01
  17.554  0.4850E+00  0.8955E+01
  17.564  0.4840E+00  0.8960E+01
  17.574  0.4828E+00  0.8965E+01
  17.584  0.4817E+00  0.8970E+01
  17.594  0.4805E+00  0.8975E+01
  17.604  0.4792E+00  0.8979E+01
  17.614  0.4779E+00  0.8984E+01
  17.624  0.4766E+00  0.8989E+01
  17.634  0.4752E+00  0.8994E+01
  17.644  0.4738E+00  0.8998E+01
  17.654  0.4724E+00  0.9003E+01
  17.664  0.4710E+00  0.9008E+01
  17.674  0.4695E+00  0.9013E+01
  17.684  0.4680E+00  0.9017E+01
  17.694  0.4664E+00  0.9022E+01
  17.704  0.4649E+00  0.9027E+01
  17.714  0.4633E+00  0.9031E+01
  17.724  0.4617E+00  0.9036E+01
  17.734  0.4600E+00  0.9040E+01
  17.744  0.4584E+00  0.9045E+01
  17.754  0.4567E+00  0.9050E+01
  17.764  0.4550E+00  0.9054E+01
  17.774  0.4533E+00  0.9059E+01
  17.784  0.4516E+00  0.9063E+01
  17.794  0.4499E+00  0.9068E+01
  17.804  0.4481E+00  0.9072E+01
  17.814  0.4463E+00  0.9077E+01
  17.824  0.4446E+00  0.9081E+01
  17.834  0.4428E+00  0.9085E+01
  17.844  0.4410E+00  0.9090E+01
  17.854  0.4392E+00  0.9094E+01
  17.864  0.4373E+00  0.9099E+01
  17.874  0.4355E+00  0.9103E+01
  17.884  0.4337E+00  0.9107E+01
  17.894  0.4319E+00  0.9112E+01
  17.904  0.4300E+00  0.9116E+01
  17.914  0.4282E+00  0.9120E+01
  17.924  0.4263E+00  0.9124E+01
  17.934  0.4244E+00  0.9129E+01
  17.944  0.4226E+00  0.9133E+01
  17.954  0.4207E+00  0.9137E+01
  17.964  0.4188E+00  0.9141E+01
  17.974  0.4170E+00  0.9145E+01
  17.984  0.4151E+00  0.9150E+01
  17.994  0.4132E+00  0.9154E+01
  18.004  0.4113E+00  0.9158E+01
  18.014  0.4095E+00  0.9162E+01
  18.024  0.4076E+00  0.9166E+01
  18.034  0.4057E+00  0.9170E+01
  18.044  0.4038E+00  0.9174E+01
  18.054  0.4019E+00  0.9178E+01
  18.064  0.4000E+00  0.9182E+01
  18.074  0.3981E+00  0.9186E+01
  18.084  0.3962E+00  0.9190E+01
  18.094  0.3943E+00  0.9194E+01
  18.104  0.3924E+00  0.9198E+01
  18.114  0.3905E+00  0.9202E+01
  18.124  0.3886E+00  0.9206E+01
  18.134  0.3867E+00  0.9210E+01
  18.144  0.3848E+00  0.9213E+01
  18.154  0.3829E+00  0.9217E+01
  18.164  0.3810E+00  0.9221E+01
  18.174  0.3791E+00  0.9225E+01
  18.184  0.3772E+00  0.9229E+01
  18.194  0.3753E+00  0.9232E+01
  18.204  0.3734E+00  0.9236E+01
  18.214  0.3715E+00  0.9240E+01
  18.224  0.3695E+00  0.9244E+01
  18.234  0.3676E+00  0.9247E+01
  18.244  0.3657E+00  0.9251E+01
  18.254  0.3638E+00  0.9255E+01
  18.264  0.3619E+00  0.9258E+01
  18.274  0.3600E+00  0.9262E+01
  18.284  0.3581E+00  0.9265E+01
  18.294  0.3562E+00  0.9269E+01
  18.304  0.3543E+00  0.9272E+01
  18.314  0.3524E+00  0.9276E+01
  18.324  0.3505E+00  0.9279E+01
  18.334  0.3486E+00  0.9283E+01
  18.344  0.3467E+00  0.9286E+01
  18.354  0.3448E+00  0.9290E+01
  18.364  0.3429E+00  0.9293E+01
  18.374  0.3410E+00  0.9297E+01
  18.384  0.3391E+00  0.9300E+01
  18.394  0.3372E+00  0.9303E+01
  18.404  0.3354E+00  0.9307E+01
  18.414  0.3335E+00  0.9310E+01
  18.424  0.3317E+00  0.9313E+01
  18.434  0.3298E+00  0.9317E+01
  18.444  0.3280E+00  0.9320E+01
  18.454  0.3262E+00  0.9323E+01
  18.464  0.3244E+00  0.9327E+01
  18.474  0.3226E+00  0.9330E+01
  18.484  0.3208E+00  0.9333E+01
  18.494  0.3191E+00  0.9336E+01
  18.504  0.3173E+00  0.9339E+01
  18.514  0.3156E+00  0.9343E+01
  18.524  0.3139E+00  0.9346E+01
  18.534  0.3122E+00  0.9349E+01
  18.544  0.3105E+00  0.9352E+01
  18.554  0.3089E+00  0.9355E+01
  18.564  0.3073E+00  0.9358E+01
  18.574  0.3057E+00  0.9361E+01
  18.584  0.3041E+00  0.9364E+01
  18.594  0.3026E+00  0.9367E+01
  18.604  0.3011E+00  0.9370E+01
  18.614  0.2996E+00  0.9373E+01
  18.624  0.2981E+00  0.9376E+01
  18.634  0.2967E+00  0.9379E+01
  18.644  0.2953E+00  0.9382E+01
  18.654  0.2939E+00  0.9385E+01
  18.664  0.2926E+00  0.9388E+01
  18.674  0.2913E+00  0.9391E+01
  18.684  0.2900E+00  0.9394E+01
  18.694  0.2888E+00  0.9397E+01
  18.704  0.2876E+00  0.9400E+01
  18.714  0.2865E+00  0.9402E+01
  18.724  0.2853E+00  0.9405E+01
  18.734  0.2843E+00  0.9408E+01
  18.744  0.2832E+00  0.9411E+01
  18.754  0.2822E+00  0.9414E+01
  18.764  0.2813E+00  0.9417E+01
  18.774  0.2804E+00  0.9419E+01
  18.784  0.2795E+00  0.9422E+01
  18.794  0.2787E+00  0.9425E+01
  18.804  0.2779E+00  0.9428E+01
  18.814  0.2771E+00  0.9430E+01
  18.824  0.2764E+00  0.9433E+01
  18.834  0.2758E+00  0.9436E+01
  18.844  0.2752E+00  0.9439E+01
  18.854  0.2746E+00  0.9442E+01
  18.864  0.2740E+00  0.9444E+01
  18.874  0.2735E+00  0.9447E+01
  18.884  0.2731E+00  0.9450E+01
  18.894  0.2727E+00  0.9452E+01
  18.904  0.2723E+00  0.9455E+01
  18.914  0.2720E+00  0.9458E+01
  18.924  0.2717E+00  0.9461E+01
  18.934  0.2714E+00  0.9463E+01
  18.944  0.2712E+00  0.9466E+01
  18.954  0.2710E+00  0.9469E+01
  18.964  0.2708E+00  0.9471E+01
  18.974  0.2707E+00  0.9474E+01
  18.984  0.2706E+00  0.9477E+01
  18.994  0.2706E+00  0.9480E+01
  19.004  0.2705E+00  0.9482E+01
  19.014  0.2705E+00  0.9485E+01
  19.024  0.2706E+00  0.9488E+01
  19.034  0.2706E+00  0.9490E+01
  19.044  0.2707E+00  0.9493E+01
  19.054  0.2708E+00  0.9496E+01
  19.064  0.2709E+00  0.9499E+01
  19.074  0.2711E+00  0.9501E+01
  19.084  0.2712E+00  0.9504E+01
  19.094  0.2714E+00  0.9507E+01
  19.104  0.2716E+00  0.9509E+01
  19.114  0.2718E+00  0.9512E+01
  19.124  0.2720E+00  0.9515E+01
  19.134  0.2722E+00  0.9518E+01
  19.144  0.2724E+00  0.9520E+01
  19.154  0.2727E+00  0.9523E+01
  19.164  0.2729E+00  0.9526E+01
  19.174  0.2731E+00  0.9528E+01
  19.184  0.2734E+00  0.9531E+01
  19.194  0.2736E+00  0.9534E+01
  19.204  0.2738E+00  0.9537E+01
  19.214  0.2741E+00  0.9539E+01
  19.224  0.2743E+00  0.9542E+01
  19.234  0.2745E+00  0.9545E+01
  19.244  0.2747E+00  0.9548E+01
  19.254  0.2749E+00  0.9550E+01
  19.264  0.2751E+00  0.9553E+01
  19.274  0.2752E+00  0.9556E+01
  19.284  0.2754E+00  0.9559E+01
  19.294  0.2755E+00  0.9561E+01
  19.304  0.2756E+00  0.9564E+01
  19.314  0.2757E+00  0.9567E+01
  19.324  0.2758E+00  0.9570E+01
  19.334  0.2759E+00  0.9572E+01
  19.344  0.2759E+00  0.9575E+01
  19.354  0.2759E+00  0.9578E+01
  19.364  0.2759E+00  0.9581E+01
  19.374  0.2758E+00  0.9583E+01
  19.384  0.2758E+00  0.9586E+01
  19.394  0.2757E+00  0.9589E+01
  19.404  0.2756E+00  0.9592E+01
  19.414  0.2755E+00  0.9594E+01
  19.424  0.2753E+00  0.9597E+01
  19.434  0.2751E+00  0.9600E+01
  19.444  0.2749E+00  0.9603E+01
  19.454  0.2746E+00  0.9605E+01
  19.464  0.2744E+00  0.9608E+01
  19.474  0.2741E+00  0.9611E+01
  19.484  0.2738E+00  0.9614E+01
  19.494  0.2734E+00  0.9616E+01
  19.504  0.2731E+00  0.9619E+01
  19.514  0.2727E+00  0.9622E+01
  19.524  0.2723E+00  0.9625E+01
  19.534  0.2718E+00  0.9627E+01
  19.544  0.2714E+00  0.9630E+01
  19.554  0.2709E+00  0.9633E+01
  19.564  0.2704E+00  0.9635E+01
  19.574  0.2699E+00  0.9638E+01
  19.584  0.2694E+00  0.9641E+01
  19.594  0.2688E+00  0.9644E+01
  19.604  0.2682E+00  0.9646E+01
  19.614  0.2677E+00  0.9649E+01
  19.624  0.2671E+00  0.9652E+01
  19.634  0.2665E+00  0.9654E+01
  19.644  0.2658E+00  0.9657E+01
  19.654  0.2652E+00  0.9660E+01
  19.664  0.2646E+00  0.9662E+01
  19.674  0.2639E+00  0.9665E+01
  19.684  0.2633E+00  0.9667E+01
  19.694  0.2626E+00  0.9670E+01
  19.704  0.2620E+00  0.9673E+01
  19.714  0.2613E+00  0.9675E+01
  19.724  0.2607E+00  0.9678E+01
  19.734  0.2600E+00  0.9681E+01
  19.744  0.2594E+00  0.9683E+01
  19.754  0.2587E+00  0.9686E+01
  19.764  0.2581E+00  0.9688E+01
  19.774  0.2574E+00  0.9691E+01
  19.784  0.2568E+00  0.9693E+01
  19.794  0.2562E+00  0.9696E+01
  19.804  0.2556E+00  0.9699E+01
  19.814  0.2550E+00  0.9701E+01
  19.824  0.2544E+00  0.9704E+01
  19.834  0.2538E+00  0.9706E+01
  19.844  0.2533E+00  0.9709E+01
  19.854  0.2527E+00  0.9711E+01
  19.864  0.2522E+00  0.9714E+01
  19.874  0.2517E+00  0.9716E+01
  19.884  0.2512E+00  0.9719E+01
  19.894  0.2508E+00  0.9721E+01
  19.904  0.2504E+00  0.9724E+01
  19.914  0.2499E+00  0.9726E+01
  19.924  0.2496E+00  0.9729E+01
  19.934  0.2492E+00  0.9731E+01
  19.944  0.2489E+00  0.9734E+01
  19.954  0.2486E+00  0.9736E+01
  19.964  0.2483E+00  0.9739E+01
  19.974  0.2480E+00  0.9741E+01
  19.984  0.2478E+00  0.9744E+01
  19.994  0.2476E+00  0.9746E+01
  20.004  0.2475E+00  0.9749E+01
  20.014  0.2473E+00  0.9751E+01
  20.024  0.2473E+00  0.9754E+01
  20.034  0.2472E+00  0.9756E+01
  20.044  0.2472E+00  0.9759E+01
  20.054  0.2472E+00  0.9761E+01
  20.064  0.2473E+00  0.9763E+01
  20.074  0.2474E+00  0.9766E+01
  20.084  0.2475E+00  0.9768E+01
  20.094  0.2476E+00  0.9771E+01
  20.104  0.2479E+00  0.9773E+01
  20.114  0.2481E+00  0.9776E+01
  20.124  0.2484E+00  0.9778E+01
  20.134  0.2487E+00  0.9781E+01
  20.144  0.2491E+00  0.9783E+01
  20.154  0.2495E+00  0.9786E+01
  20.164  0.2500E+00  0.9788E+01
  20.174  0.2505E+00  0.9791E+01
  20.184  0.2510E+00  0.9793E+01
  20.194  0.2516E+00  0.9796E+01
  20.204  0.2523E+00  0.9798E+01
  20.214  0.2530E+00  0.9801E+01
  20.224  0.2537E+00  0.9803E+01
  20.234  0.2545E+00  0.9806E+01
  20.244  0.2553E+00  0.9809E+01
  20.254  0.2562E+00  0.9811E+01
  20.264  0.2571E+00  0.9814E+01
  20.274  0.2581E+00  0.9816E+01
  20.284  0.2591E+00  0.9819E+01
  20.294  0.2602E+00  0.9821E+01
  20.304  0.2614E+00  0.9824E+01
  20.314  0.2626E+00  0.9827E+01
  20.324  0.2638E+00  0.9829E+01
  20.334  0.2651E+00  0.9832E+01
  20.344  0.2664E+00  0.9835E+01
  20.354  0.2678E+00  0.9837E+01
  20.364  0.2693E+00  0.9840E+01
  20.374  0.2708E+00  0.9843E+01
  20.384  0.2724E+00  0.9845E+01
  20.394  0.2740E+00  0.9848E+01
  20.404  0.2756E+00  0.9851E+01
  20.414  0.2774E+00  0.9854E+01
  20.424  0.2791E+00  0.9857E+01
  20.434  0.2810E+00  0.9859E+01
  20.444  0.2829E+00  0.9862E+01
  20.454  0.2848E+00  0.9865E+01
  20.464  0.2868E+00  0.9868E+01
  20.474  0.2889E+00  0.9871E+01
  20.484  0.2910E+00  0.9874E+01
  20.494  0.2931E+00  0.9877E+01
  20.504  0.2953E+00  0.9880E+01
  20.514  0.2976E+00  0.9883E+01
  20.524  0.2999E+00  0.9886E+01
  20.534  0.3023E+00  0.9889E+01
  20.544  0.3047E+00  0.9892E+01
  20.554  0.3071E+00  0.9895E+01
  20.564  0.3096E+00  0.9898E+01
  20.574  0.3122E+00  0.9901E+01
  20.584  0.3148E+00  0.9904E+01
  20.594  0.3174E+00  0.9907E+01
  20.604  0.3201E+00  0.9910E+01
  20.614  0.3229E+00  0.9914E+01
  20.624  0.3257E+00  0.9917E+01
  20.634  0.3285E+00  0.9920E+01
  20.644  0.3313E+00  0.9923E+01
  20.654  0.3342E+00  0.9927E+01
  20.664  0.3372E+00  0.9930E+01
  20.674  0.3401E+00  0.9934E+01
  20.684  0.3431E+00  0.9937E+01
  20.694  0.3462E+00  0.9941E+01
  20.704  0.3492E+00  0.9944E+01
  20.714  0.3523E+00  0.9948E+01
  20.724  0.3554E+00  0.9951E+01
  20.734  0.3586E+00  0.9955E+01
  20.744  0.3617E+00  0.9958E+01
  20.754  0.3649E+00  0.9962E+01
  20.764  0.3681E+00  0.9966E+01
  20.774  0.3714E+00  0.9969E+01
  20.784  0.3746E+00  0.9973E+01
  20.794  0.3778E+00  0.9977E+01
  20.804  0.3811E+00  0.9981E+01
  20.814  0.3844E+00  0.9984E+01
  20.824  0.3877E+00  0.9988E+01
  20.834  0.3910E+00  0.9992E+01
  20.844  0.3943E+00  0.9996E+01
  20.854  0.3976E+00  0.1000E+02
  20.864  0.4009E+00  0.1000E+02
  20.874  0.4042E+00  0.1001E+02
  20.884  0.4075E+00  0.1001E+02
  20.894  0.4108E+00  0.1002E+02
  20.904  0.4141E+00  0.1002E+02
  20.914  0.4174E+00  0.1002E+02
  20.924  0.4207E+00  0.1003E+02
  20.934  0.4240E+00  0.1003E+02
  20.944  0.4273E+00  0.1004E+02
  20.954  0.4305E+00  0.1004E+02
  20.964  0.4338E+00  0.1005E+02
  20.974  0.4370E+00  0.1005E+02
  20.984  0.4402E+00  0.1005E+02
  20.994  0.4435E+00  0.1006E+02
  21.004  0.4466E+00  0.1006E+02
  21.014  0.4498E+00  0.1007E+02
  21.024  0.4530E+00  0.1007E+02
  21.034  0.4562E+00  0.1008E+02
  21.044  0.4593E+00  0.1008E+02
  21.054  0.4624E+00  0.1009E+02
  21.064  0.4655E+00  0.1009E+02
  21.074  0.4686E+00  0.1010E+02
  21.084  0.4717E+00  0.1010E+02
  21.094  0.4747E+00  0.1011E+02
  21.104  0.4777E+00  0.1011E+02
  21.114  0.4808E+00  0.1011E+02
  21.124  0.4838E+00  0.1012E+02
  21.134  0.4868E+00  0.1012E+02
  21.144  0.4897E+00  0.1013E+02
  21.154  0.4927E+00  0.1013E+02
  21.164  0.4956E+00  0.1014E+02
  21.174  0.4985E+00  0.1014E+02
  21.184  0.5015E+00  0.1015E+02
  21.194  0.5044E+00  0.1015E+02
  21.204  0.5072E+00  0.1016E+02
  21.214  0.5101E+00  0.1016E+02
  21.224  0.5130E+00  0.1017E+02
  21.234  0.5158E+00  0.1017E+02
  21.244  0.5187E+00  0.1018E+02
  21.254  0.5215E+00  0.1019E+02
  21.264  0.5244E+00  0.1019E+02
  21.274  0.5272E+00  0.1020E+02
  21.284  0.5300E+00  0.1020E+02
  21.294  0.5328E+00  0.1021E+02
  21.304  0.5357E+00  0.1021E+02
  21.314  0.5385E+00  0.1022E+02
  21.324  0.5413E+00  0.1022E+02
  21.334  0.5441E+00  0.1023E+02
  21.344  0.5469E+00  0.1023E+02
  21.354  0.5498E+00  0.1024E+02
  21.364  0.5526E+00  0.1024E+02
  21.374  0.5554E+00  0.1025E+02
  21.384  0.5582E+00  0.1026E+02
  21.394  0.5611E+00  0.1026E+02
  21.404  0.5639E+00  0.1027E+02
  21.414  0.5667E+00  0.1027E+02
  21.424  0.5696E+00  0.1028E+02
  21.434  0.5724E+00  0.1028E+02
  21.444  0.5753E+00  0.1029E+02
  21.454  0.5781E+00  0.1030E+02
  21.464  0.5810E+00  0.1030E+02
  21.474  0.5839E+00  0.1031E+02
  21.484  0.5868E+00  0.1031E+02
  21.494  0.5896E+00  0.1032E+02
  21.504  0.5925E+00  0.1032E+02
  21.514  0.5954E+00  0.1033E+02
  21.524  0.5983E+00  0.1034E+02
  21.534  0.6012E+00  0.1034E+02
  21.544  0.6041E+00  0.1035E+02
  21.554  0.6070E+00  0.1036E+02
  21.564  0.6098E+00  0.1036E+02
  21.574  0.6127E+00  0.1037E+02
  21.584  0.6156E+00  0.1037E+02
  21.594  0.6185E+00  0.1038E+02
  21.604  0.6213E+00  0.1039E+02
  21.614  0.6242E+00  0.1039E+02
  21.624  0.6270E+00  0.1040E+02
  21.634  0.6298E+00  0.1040E+02
  21.644  0.6326E+00  0.1041E+02
  21.654  0.6354E+00  0.1042E+02
  21.664  0.6382E+00  0.1042E+02
  21.674  0.6409E+00  0.1043E+02
  21.684  0.6437E+00  0.1044E+02
  21.694  0.6464E+00  0.1044E+02
  21.704  0.6490E+00  0.1045E+02
  21.714  0.6516E+00  0.1046E+02
  21.724  0.6542E+00  0.1046E+02
  21.734  0.6568E+00  0.1047E+02
  21.744  0.6593E+00  0.1048E+02
  21.754  0.6618E+00  0.1048E+02
  21.764  0.6642E+00  0.1049E+02
  21.774  0.6666E+00  0.1050E+02
  21.784  0.6689E+00  0.1050E+02
  21.794  0.6712E+00  0.1051E+02
  21.804  0.6734E+00  0.1052E+02
  21.814  0.6756E+00  0.1052E+02
  21.824  0.6777E+00  0.1053E+02
  21.834  0.6797E+00  0.1054E+02
  21.844  0.6817E+00  0.1054E+02
  21.854  0.6836E+00  0.1055E+02
  21.864  0.6854E+00  0.1056E+02
  21.874  0.6872E+00  0.1056E+02
  21.884  0.6889E+00  0.1057E+02
  21.894  0.6905E+00  0.1058E+02
  21.904  0.6920E+00  0.1058E+02
  21.914  0.6935E+00  0.1059E+02
  21.924  0.6949E+00  0.1060E+02
  21.934  0.6962E+00  0.1061E+02
  21.944  0.6974E+00  0.1061E+02
  21.954  0.6985E+00  0.1062E+02
  21.964  0.6996E+00  0.1063E+02
  21.974  0.7006E+00  0.1063E+02
  21.984  0.7014E+00  0.1064E+02
  21.994  0.7022E+00  0.1065E+02
  22.004  0.7029E+00  0.1065E+02
  22.014  0.7036E+00  0.1066E+02
  22.024  0.7041E+00  0.1067E+02
  22.034  0.7046E+00  0.1068E+02
  22.044  0.7049E+00  0.1068E+02
  22.054  0.7052E+00  0.1069E+02
  22.064  0.7054E+00  0.1070E+02
  22.074  0.7055E+00  0.1070E+02
  22.084  0.7056E+00  0.1071E+02
  22.094  0.7055E+00  0.1072E+02
  22.104  0.7054E+00  0.1072E+02
  22.114  0.7052E+00  0.1073E+02
  22.124  0.7049E+00  0.1074E+02
  22.134  0.7046E+00  0.1075E+02
  22.144  0.7041E+00  0.1075E+02
  22.154  0.7036E+00  0.1076E+02
  22.164  0.7030E+00  0.1077E+02
  22.174  0.7024E+00  0.1077E+02
  22.184  0.7017E+00  0.1078E+02
  22.194  0.7009E+00  0.1079E+02
  22.204  0.7001E+00  0.1079E+02
  22.214  0.6992E+00  0.1080E+02
  22.224  0.6982E+00  0.1081E+02
  22.234  0.6972E+00  0.1082E+02
  22.244  0.6961E+00  0.1082E+02
  22.254  0.6950E+00  0.1083E+02
  22.264  0.6939E+00  0.1084E+02
  22.274  0.6926E+00  0.1084E+02
  22.284  0.6914E+00  0.1085E+02
  22.294  0.6901E+00  0.1086E+02
  22.304  0.6888E+00  0.1086E+02
  22.314  0.6874E+00  0.1087E+02
  22.324  0.6860E+00  0.1088E+02
  22.334  0.6845E+00  0.1088E+02
  22.344  0.6831E+00  0.1089E+02
  22.354  0.6816E+00  0.1090E+02
  22.364  0.6800E+00  0.1091E+02
  22.374  0.6785E+00  0.1091E+02
  22.384  0.6769E+00  0.1092E+02
  22.394  0.6753E+00  0.1093E+02
  22.404  0.6737E+00  0.1093E+02
  22.414  0.6721E+00  0.1094E+02
  22.424  0.6704E+00  0.1095E+02
  22.434  0.6687E+00  0.1095E+02
  22.444  0.6670E+00  0.1096E+02
  22.454  0.6654E+00  0.1097E+02
  22.464  0.6636E+00  0.1097E+02
  22.474  0.6619E+00  0.1098E+02
  22.484  0.6602E+00  0.1099E+02
  22.494  0.6585E+00  0.1099E+02
  22.504  0.6567E+00  0.1100E+02
  22.514  0.6549E+00  0.1101E+02
  22.524  0.6532E+00  0.1101E+02
  22.534  0.6514E+00  0.1102E+02
  22.544  0.6496E+00  0.1102E+02
  22.554  0.6478E+00  0.1103E+02
  22.564  0.6460E+00  0.1104E+02
  22.574  0.6442E+00  0.1104E+02
  22.584  0.6424E+00  0.1105E+02
  22.594  0.6406E+00  0.1106E+02
  22.604  0.6388E+00  0.1106E+02
  22.614  0.6369E+00  0.1107E+02
  22.624  0.6351E+00  0.1108E+02
  22.634  0.6332E+00  0.1108E+02
  22.644  0.6314E+00  0.1109E+02
  22.654  0.6295E+00  0.1110E+02
  22.664  0.6276E+00  0.1110E+02
  22.674  0.6257E+00  0.1111E+02
  22.684  0.6238E+00  0.1111E+02
  22.694  0.6219E+00  0.1112E+02
  22.704  0.6199E+00  0.1113E+02
  22.714  0.6180E+00  0.1113E+02
  22.724  0.6160E+00  0.1114E+02
  22.734  0.6140E+00  0.1114E+02
  22.744  0.6120E+00  0.1115E+02
  22.754  0.6100E+00  0.1116E+02
  22.764  0.6080E+00  0.1116E+02
  22.774  0.6060E+00  0.1117E+02
  22.784  0.6039E+00  0.1118E+02
  22.794  0.6018E+00  0.1118E+02
  22.804  0.5997E+00  0.1119E+02
  22.814  0.5976E+00  0.1119E+02
  22.824  0.5955E+00  0.1120E+02
  22.834  0.5934E+00  0.1121E+02
  22.844  0.5912E+00  0.1121E+02
  22.854  0.5891E+00  0.1122E+02
  22.864  0.5869E+00  0.1122E+02
  22.874  0.5847E+00  0.1123E+02
  22.884  0.5825E+00  0.1123E+02
  22.894  0.5803E+00  0.1124E+02
  22.904  0.5780E+00  0.1125E+02
  22.914  0.5758E+00  0.1125E+02
  22.924  0.5736E+00  0.1126E+02
  22.934  0.5713E+00  0.1126E+02
  22.944  0.5690E+00  0.1127E+02
  22.954  0.5668E+00  0.1127E+02
  22.964  0.5645E+00  0.1128E+02
  22.974  0.5622E+00  0.1129E+02
  22.984  0.5600E+00  0.1129E+02
  22.994  0.5577E+00  0.1130E+02
  23.004  0.5554E+00  0.1130E+02
  23.014  0.5532E+00  0.1131E+02
  23.024  0.5509E+00  0.1131E+02
  23.034  0.5487E+00  0.1132E+02
  23.044  0.5465E+00  0.1132E+02
  23.054  0.5442E+00  0.1133E+02
  23.064  0.5420E+00  0.1134E+02
  23.074  0.5399E+00  0.1134E+02
  23.084  0.5377E+00  0.1135E+02
  23.094  0.5356E+00  0.1135E+02
  23.104  0.5335E+00  0.1136E+02
  23.114  0.5314E+00  0.1136E+02
  23.124  0.5294E+00  0.1137E+02
  23.134  0.5274E+00  0.1137E+02
  23.144  0.5254E+00  0.1138E+02
  23.154  0.5235E+00  0.1138E+02
  23.164  0.5216E+00  0.1139E+02
  23.174  0.5198E+00  0.1139E+02
  23.184  0.5180E+00  0.1140E+02
  23.194  0.5162E+00  0.1140E+02
  23.204  0.5145E+00  0.1141E+02
  23.214  0.5129E+00  0.1141E+02
  23.224  0.5113E+00  0.1142E+02
  23.234  0.5098E+00  0.1142E+02
  23.244  0.5083E+00  0.1143E+02
  23.254  0.5069E+00  0.1143E+02
  23.264  0.5056E+00  0.1144E+02
  23.274  0.5043E+00  0.1144E+02
  23.284  0.5031E+00  0.1145E+02
  23.294  0.5020E+00  0.1145E+02
  23.304  0.5009E+00  0.1146E+02
  23.314  0.4999E+00  0.1146E+02
  23.324  0.4990E+00  0.1147E+02
  23.334  0.4981E+00  0.1147E+02
  23.344  0.4974E+00  0.1148E+02
  23.354  0.4967E+00  0.1148E+02
  23.364  0.4961E+00  0.1149E+02
  23.374  0.4955E+00  0.1149E+02
  23.384  0.4951E+00  0.1150E+02
  23.394  0.4947E+00  0.1150E+02
  23.404  0.4944E+00  0.1151E+02
  23.414  0.4941E+00  0.1151E+02
  23.424  0.4940E+00  0.1152E+02
  23.434  0.4939E+00  0.1152E+02
  23.444  0.4939E+00  0.1153E+02
  23.454  0.4940E+00  0.1153E+02
  23.464  0.4941E+00  0.1154E+02
  23.474  0.4944E+00  0.1154E+02
  23.484  0.4947E+00  0.1155E+02
  23.494  0.4951E+00  0.1155E+02
  23.504  0.4955E+00  0.1156E+02
  23.514  0.4960E+00  0.1156E+02
  23.524  0.4966E+00  0.1157E+02
  23.534  0.4973E+00  0.1157E+02
  23.544  0.4980E+00  0.1158E+02
  23.554  0.4988E+00  0.1158E+02
  23.564  0.4996E+00  0.1159E+02
  23.574  0.5005E+00  0.1159E+02
  23.584  0.5015E+00  0.1160E+02
  23.594  0.5025E+00  0.1160E+02
  23.604  0.5036E+00  0.1161E+02
  23.614  0.5047E+00  0.1161E+02
  23.624  0.5059E+00  0.1162E+02
  23.634  0.5071E+00  0.1162E+02
  23.644  0.5084E+00  0.1163E+02
  23.654  0.5097E+00  0.1163E+02
  23.664  0.5111E+00  0.1164E+02
  23.674  0.5125E+00  0.1164E+02
  23.684  0.5139E+00  0.1165E+02
  23.694  0.5154E+00  0.1165E+02
  23.704  0.5168E+00  0.1166E+02
  23.714  0.5184E+00  0.1167E+02
  23.724  0.5199E+00  0.1167E+02
  23.734  0.5214E+00  0.1168E+02
  23.744  0.5230E+00  0.1168E+02
  23.754  0.5246E+00  0.1169E+02
  23.764  0.5262E+00  0.1169E+02
  23.774  0.5278E+00  0.1170E+02
  23.784  0.5294E+00  0.1170E+02
  23.794  0.5310E+00  0.1171E+02
  23.804  0.5326E+00  0.1171E+02
  23.814  0.5343E+00  0.1172E+02
  23.824  0.5359E+00  0.1172E+02
  23.834  0.5375E+00  0.1173E+02
  23.844  0.5391E+00  0.1173E+02
  23.854  0.5407E+00  0.1174E+02
  23.864  0.5422E+00  0.1174E+02
  23.874  0.5438E+00  0.1175E+02
  23.884  0.5453E+00  0.1176E+02
  23.894  0.5468E+00  0.1176E+02
  23.904  0.5483E+00  0.1177E+02
  23.914  0.5498E+00  0.1177E+02
  23.924  0.5512E+00  0.1178E+02
  23.934  0.5526E+00  0.1178E+02
  23.944  0.5540E+00  0.1179E+02
  23.954  0.5554E+00  0.1179E+02
  23.964  0.5567E+00  0.1180E+02
  23.974  0.5580E+00  0.1181E+02
  23.984  0.5592E+00  0.1181E+02
  23.994  0.5604E+00  0.1182E+02
  24.004  0.5616E+00  0.1182E+02
  24.014  0.5627E+00  0.1183E+02
  24.024  0.5638E+00  0.1183E+02
  24.034  0.5649E+00  0.1184E+02
  24.044  0.5659E+00  0.1184E+02
  24.054  0.5669E+00  0.1185E+02
  24.064  0.5678E+00  0.1186E+02
  24.074  0.5687E+00  0.1186E+02
  24.084  0.5695E+00  0.1187E+02
  24.094  0.5703E+00  0.1187E+02
  24.104  0.5711E+00  0.1188E+02
  24.114  0.5718E+00  0.1188E+02
  24.124  0.5725E+00  0.1189E+02
  24.134  0.5732E+00  0.1190E+02
  24.144  0.5738E+00  0.1190E+02
  24.154  0.5744E+00  0.1191E+02
  24.164  0.5749E+00  0.1191E+02
  24.174  0.5754E+00  0.1192E+02
  24.184  0.5759E+00  0.1192E+02
  24.194  0.5763E+00  0.1193E+02
  24.204  0.5767E+00  0.1194E+02
  24.214  0.5771E+00  0.1194E+02
  24.224  0.5774E+00  0.1195E+02
  24.234  0.5777E+00  0.1195E+02
  24.244  0.5780E+00  0.1196E+02
  24.254  0.5783E+00  0.1197E+02
  24.264  0.5785E+00  0.1197E+02
  24.274  0.5788E+00  0.1198E+02
  24.284  0.5790E+00  0.1198E+02
  24.294  0.5792E+00  0.1199E+02
  24.304  0.5794E+00  0.1199E+02
  24.314  0.5795E+00  0.1200E+02
  24.324  0.5797E+00  0.1201E+02
  24.334  0.5798E+00  0.1201E+02
  24.344  0.5800E+00  0.1202E+02
  24.354  0.5801E+00  0.1202E+02
  24.364  0.5803E+00  0.1203E+02
  24.374  0.5804E+00  0.1203E+02
  24.384  0.5806E+00  0.1204E+02
  24.394  0.5807E+00  0.1205E+02
  24.404  0.5809E+00  0.1205E+02
  24.414  0.5810E+00  0.1206E+02
  24.424  0.5812E+00  0.1206E+02
  24.434  0.5814E+00  0.1207E+02
  24.444  0.5816E+00  0.1208E+02
  24.454  0.5818E+00  0.1208E+02
  24.464  0.5820E+00  0.1209E+02
  24.474  0.5823E+00  0.1209E+02
  24.484  0.5825E+00  0.1210E+02
  24.494  0.5828E+00  0.1210E+02
  24.504  0.5831E+00  0.1211E+02
  24.514  0.5835E+00  0.1212E+02
  24.524  0.5838E+00  0.1212E+02
  24.534  0.5842E+00  0.1213E+02
  24.544  0.5846E+00  0.1213E+02
  24.554  0.5850E+00  0.1214E+02
  24.564  0.5855E+00  0.1215E+02
  24.574  0.5860E+00  0.1215E+02
  24.584  0.5865E+00  0.1216E+02
  24.594  0.5870E+00  0.1216E+02
  24.604  0.5875E+00  0.1217E+02
  24.614  0.5881E+00  0.1217E+02
  24.624  0.5887E+00  0.1218E+02
  24.634  0.5893E+00  0.1219E+02
  24.644  0.5900E+00  0.1219E+02
  24.654  0.5907E+00  0.1220E+02
  24.664  0.5914E+00  0.1220E+02
  24.674  0.5921E+00  0.1221E+02
  24.684  0.5928E+00  0.1222E+02
  24.694  0.5936E+00  0.1222E+02
  24.704  0.5943E+00  0.1223E+02
  24.714  0.5951E+00  0.1223E+02
  24.724  0.5959E+00  0.1224E+02
  24.734  0.5968E+00  0.1225E+02
  24.744  0.5976E+00  0.1225E+02
  24.754  0.5984E+00  0.1226E+02
  24.764  0.5993E+00  0.1226E+02
  24.774  0.6002E+00  0.1227E+02
  24.784  0.6010E+00  0.1228E+02
  24.794  0.6019E+00  0.1228E+02
  24.804  0.6028E+00  0.1229E+02
  24.814  0.6036E+00  0.1229E+02
  24.824  0.6045E+00  0.1230E+02
  24.834  0.6054E+00  0.1231E+02
  24.844  0.6062E+00  0.1231E+02
  24.854  0.6071E+00  0.1232E+02
  24.864  0.6079E+00  0.1232E+02
  24.874  0.6088E+00  0.1233E+02
  24.884  0.6096E+00  0.1234E+02
  24.894  0.6104E+00  0.1234E+02
  24.904  0.6112E+00  0.1235E+02
  24.914  0.6120E+00  0.1235E+02
  24.924  0.6127E+00  0.1236E+02
  24.934  0.6135E+00  0.1237E+02
  24.944  0.6142E+00  0.1237E+02
  24.954  0.6149E+00  0.1238E+02
  24.964  0.6156E+00  0.1239E+02
  24.974  0.6162E+00  0.1239E+02
  24.984  0.6169E+00  0.1240E+02
  24.994  0.6175E+00  0.1240E+02
  25.004  0.6180E+00  0.1241E+02
  25.014  0.6186E+00  0.1242E+02
  25.024  0.6191E+00  0.1242E+02
  25.034  0.6196E+00  0.1243E+02
  25.044  0.6201E+00  0.1243E+02
  25.054  0.6206E+00  0.1244E+02
  25.064  0.6210E+00  0.1245E+02
  25.074  0.6214E+00  0.1245E+02
  25.084  0.6218E+00  0.1246E+02
  25.094  0.6221E+00  0.1247E+02
  25.104  0.6225E+00  0.1247E+02
  25.114  0.6228E+00  0.1248E+02
  25.124  0.6231E+00  0.1248E+02
  25.134  0.6233E+00  0.1249E+02
  25.144  0.6236E+00  0.1250E+02
  25.154  0.6238E+00  0.1250E+02
  25.164  0.6240E+00  0.1251E+02
  25.174  0.6242E+00  0.1252E+02
  25.184  0.6244E+00  0.1252E+02
  25.194  0.6246E+00  0.1253E+02
  25.204  0.6248E+00  0.1253E+02
  25.214  0.6250E+00  0.1254E+02
  25.224  0.6252E+00  0.1255E+02
  25.234  0.6253E+00  0.1255E+02
  25.244  0.6255E+00  0.1256E+02
  25.254  0.6257E+00  0.1257E+02
  25.264  0.6259E+00  0.1257E+02
  25.274  0.6260E+00  0.1258E+02
  25.284  0.6262E+00  0.1258E+02
  25.294  0.6265E+00  0.1259E+02
  25.304  0.6267E+00  0.1260E+02
  25.314  0.6269E+00  0.1260E+02
  25.324  0.6272E+00  0.1261E+02
  25.334  0.6275E+00  0.1262E+02
  25.344  0.6278E+00  0.1262E+02
  25.354  0.6281E+00  0.1263E+02
  25.364  0.6285E+00  0.1263E+02
  25.374  0.6289E+00  0.1264E+02
  25.384  0.6293E+00  0.1265E+02
  25.394  0.6298E+00  0.1265E+02
  25.404  0.6303E+00  0.1266E+02
  25.414  0.6308E+00  0.1267E+02
  25.424  0.6314E+00  0.1267E+02
  25.434  0.6320E+00  0.1268E+02
  25.444  0.6326E+00  0.1269E+02
  25.454  0.6333E+00  0.1269E+02
  25.464  0.6340E+00  0.1270E+02
  25.474  0.6348E+00  0.1270E+02
  25.484  0.6356E+00  0.1271E+02
  25.494  0.6365E+00  0.1272E+02
  25.504  0.6374E+00  0.1272E+02
  25.514  0.6383E+00  0.1273E+02
  25.524  0.6393E+00  0.1274E+02
  25.534  0.6404E+00  0.1274E+02
  25.544  0.6414E+00  0.1275E+02
  25.554  0.6425E+00  0.1276E+02
  25.564  0.6437E+00  0.1276E+02
  25.574  0.6449E+00  0.1277E+02
  25.584  0.6461E+00  0.1277E+02
  25.594  0.6474E+00  0.1278E+02
  25.604  0.6487E+00  0.1279E+02
  25.614  0.6500E+00  0.1279E+02
  25.624  0.6514E+00  0.1280E+02
  25.634  0.6528E+00  0.1281E+02
  25.644  0.6542E+00  0.1281E+02
  25.654  0.6557E+00  0.1282E+02
  25.664  0.6571E+00  0.1283E+02
  25.674  0.6586E+00  0.1283E+02
  25.684  0.6601E+00  0.1284E+02
  25.694  0.6616E+00  0.1285E+02
  25.704  0.6632E+00  0.1285E+02
  25.714  0.6647E+00  0.1286E+02
  25.724  0.6662E+00  0.1287E+02
  25.734  0.6677E+00  0.1287E+02
  25.744  0.6693E+00  0.1288E+02
  25.754  0.6708E+00  0.1289E+02
  25.764  0.6723E+00  0.1289E+02
  25.774  0.6738E+00  0.1290E+02
  25.784  0.6752E+00  0.1291E+02
  25.794  0.6767E+00  0.1291E+02
  25.804  0.6781E+00  0.1292E+02
  25.814  0.6795E+00  0.1293E+02
  25.824  0.6808E+00  0.1293E+02
  25.834  0.6822E+00  0.1294E+02
  25.844  0.6834E+00  0.1295E+02
  25.854  0.6847E+00  0.1295E+02
  25.864  0.6858E+00  0.1296E+02
  25.874  0.6870E+00  0.1297E+02
  25.884  0.6881E+00  0.1298E+02
  25.894  0.6891E+00  0.1298E+02
  25.904  0.6901E+00  0.1299E+02
  25.914  0.6910E+00  0.1300E+02
  25.924  0.6918E+00  0.1300E+02
  25.934  0.6926E+00  0.1301E+02
  25.944  0.6933E+00  0.1302E+02
  25.954  0.6939E+00  0.1302E+02
  25.964  0.6944E+00  0.1303E+02
  25.974  0.6949E+00  0.1304E+02
  25.984  0.6953E+00  0.1304E+02
  25.994  0.6956E+00  0.1305E+02
  26.004  0.6959E+00  0.1306E+02
  26.014  0.6960E+00  0.1307E+02
  26.024  0.6961E+00  0.1307E+02
  26.034  0.6961E+00  0.1308E+02
  26.044  0.6960E+00  0.1309E+02
  26.054  0.6958E+00  0.1309E+02
  26.064  0.6956E+00  0.1310E+02
  26.074  0.6952E+00  0.1311E+02
  26.084  0.6948E+00  0.1311E+02
  26.094  0.6943E+00  0.1312E+02
  26.104  0.6937E+00  0.1313E+02
  26.114  0.6931E+00  0.1313E+02
  26.124  0.6923E+00  0.1314E+02
  26.134  0.6915E+00  0.1315E+02
  26.144  0.6906E+00  0.1316E+02
  26.154  0.6897E+00  0.1316E+02
  26.164  0.6886E+00  0.1317E+02
  26.174  0.6875E+00  0.1318E+02
  26.184  0.6863E+00  0.1318E+02
  26.194  0.6851E+00  0.1319E+02
  26.204  0.6838E+00  0.1320E+02
  26.214  0.6824E+00  0.1320E+02
  26.224  0.6810E+00  0.1321E+02
  26.234  0.6796E+00  0.1322E+02
  26.244  0.6780E+00  0.1322E+02
  26.254  0.6765E+00  0.1323E+02
  26.264  0.6749E+00  0.1324E+02
  26.274  0.6732E+00  0.1324E+02
  26.284  0.6715E+00  0.1325E+02
  26.294  0.6698E+00  0.1326E+02
  26.304  0.6681E+00  0.1326E+02
  26.314  0.6663E+00  0.1327E+02
  26.324  0.6645E+00  0.1328E+02
  26.334  0.6627E+00  0.1328E+02
  26.344  0.6609E+00  0.1329E+02
  26.354  0.6591E+00  0.1330E+02
  26.364  0.6572E+00  0.1330E+02
  26.374  0.6554E+00  0.1331E+02
  26.384  0.6536E+00  0.1332E+02
  26.394  0.6517E+00  0.1332E+02
  26.404  0.6499E+00  0.1333E+02
  26.414  0.6481E+00  0.1334E+02
  26.424  0.6463E+00  0.1334E+02
  26.434  0.6445E+00  0.1335E+02
  26.444  0.6427E+00  0.1336E+02
  26.454  0.6409E+00  0.1336E+02
  26.464  0.6392E+00  0.1337E+02
  26.474  0.6375E+00  0.1338E+02
  26.484  0.6359E+00  0.1338E+02
  26.494  0.6342E+00  0.1339E+02
  26.504  0.6326E+00  0.1339E+02
  26.514  0.6311E+00  0.1340E+02
  26.524  0.6295E+00  0.1341E+02
  26.534  0.6281E+00  0.1341E+02
  26.544  0.6266E+00  0.1342E+02
  26.554  0.6252E+00  0.1343E+02
  26.564  0.6239E+00  0.1343E+02
  26.574  0.6226E+00  0.1344E+02
  26.584  0.6213E+00  0.1344E+02
  26.594  0.6201E+00  0.1345E+02
  26.604  0.6189E+00  0.1346E+02
  26.614  0.6178E+00  0.1346E+02
  26.624  0.6167E+00  0.1347E+02
  26.634  0.6157E+00  0.1348E+02
  26.644  0.6147E+00  0.1348E+02
  26.654  0.6138E+00  0.1349E+02
  26.664  0.6129E+00  0.1349E+02
  26.674  0.6121E+00  0.1350E+02
  26.684  0.6113E+00  0.1351E+02
  26.694  0.6106E+00  0.1351E+02
  26.704  0.6099E+00  0.1352E+02
  26.714  0.6092E+00  0.1352E+02
  26.724  0.6086E+00  0.1353E+02
  26.734  0.6081E+00  0.1354E+02
  26.744  0.6075E+00  0.1354E+02
  26.754  0.6071E+00  0.1355E+02
  26.764  0.6066E+00  0.1355E+02
  26.774  0.6062E+00  0.1356E+02
  26.784  0.6058E+00  0.1357E+02
  26.794  0.6055E+00  0.1357E+02
  26.804  0.6051E+00  0.1358E+02
  26.814  0.6049E+00  0.1358E+02
  26.824  0.6046E+00  0.1359E+02
  26.834  0.6044E+00  0.1360E+02
  26.844  0.6041E+00  0.1360E+02
  26.854  0.6039E+00  0.1361E+02
  26.864  0.6038E+00  0.1362E+02
  26.874  0.6036E+00  0.1362E+02
  26.884  0.6035E+00  0.1363E+02
  26.894  0.6033E+00  0.1363E+02
  26.904  0.6032E+00  0.1364E+02
  26.914  0.6031E+00  0.1365E+02
  26.924  0.6030E+00  0.1365E+02
  26.934  0.6029E+00  0.1366E+02
  26.944  0.6029E+00  0.1366E+02
  26.954  0.6028E+00  0.1367E+02
  26.964  0.6027E+00  0.1368E+02
  26.974  0.6026E+00  0.1368E+02
  26.984  0.6026E+00  0.1369E+02
  26.994  0.6025E+00  0.1369E+02
  27.004  0.6024E+00  0.1370E+02
  27.014  0.6024E+00  0.1371E+02
  27.024  0.6023E+00  0.1371E+02
  27.034  0.6022E+00  0.1372E+02
  27.044  0.6021E+00  0.1372E+02
  27.054  0.6020E+00  0.1373E+02
  27.064  0.6019E+00  0.1374E+02
  27.074  0.6018E+00  0.1374E+02
  27.084  0.6017E+00  0.1375E+02
  27.094  0.6016E+00  0.1375E+02
  27.104  0.6015E+00  0.1376E+02
  27.114  0.6014E+00  0.1377E+02
  27.124  0.6012E+00  0.1377E+02
  27.134  0.6011E+00  0.1378E+02
  27.144  0.6009E+00  0.1378E+02
  27.154  0.6008E+00  0.1379E+02
  27.164  0.6007E+00  0.1380E+02
  27.174  0.6005E+00  0.1380E+02
  27.184  0.6003E+00  0.1381E+02
  27.194  0.6002E+00  0.1381E+02
  27.204  0.6000E+00  0.1382E+02
  27.214  0.5999E+00  0.1383E+02
  27.224  0.5997E+00  0.1383E+02
  27.234  0.5996E+00  0.1384E+02
  27.244  0.5994E+00  0.1384E+02
  27.254  0.5993E+00  0.1385E+02
  27.264  0.5991E+00  0.1386E+02
  27.274  0.5990E+00  0.1386E+02
  27.284  0.5989E+00  0.1387E+02
  27.294  0.5988E+00  0.1387E+02
  27.304  0.5986E+00  0.1388E+02
  27.314  0.5986E+00  0.1389E+02
  27.324  0.5985E+00  0.1389E+02
  27.334  0.5984E+00  0.1390E+02
  27.344  0.5984E+00  0.1390E+02
  27.354  0.5983E+00  0.1391E+02
  27.364  0.5983E+00  0.1392E+02
  27.374  0.5983E+00  0.1392E+02
  27.384  0.5983E+00  0.1393E+02
  27.394  0.5984E+00  0.1393E+02
  27.404  0.5985E+00  0.1394E+02
  27.414  0.5985E+00  0.1395E+02
  27.424  0.5987E+00  0.1395E+02
  27.434  0.5988E+00  0.1396E+02
  27.444  0.5990E+00  0.1396E+02
  27.454  0.5992E+00  0.1397E+02
  27.464  0.5994E+00  0.1398E+02
  27.474  0.5997E+00  0.1398E+02
  27.484  0.6000E+00  0.1399E+02
  27.494  0.6003E+00  0.1399E+02
  27.504  0.6006E+00  0.1400E+02
  27.514  0.6010E+00  0.1401E+02
  27.524  0.6014E+00  0.1401E+02
  27.534  0.6018E+00  0.1402E+02
  27.544  0.6023E+00  0.1402E+02
  27.554  0.6028E+00  0.1403E+02
  27.564  0.6034E+00  0.1404E+02
  27.574  0.6039E+00  0.1404E+02
  27.584  0.6045E+00  0.1405E+02
  27.594  0.6051E+00  0.1405E+02
  27.604  0.6058E+00  0.1406E+02
  27.614  0.6065E+00  0.1407E+02
  27.624  0.6072E+00  0.1407E+02
  27.634  0.6080E+00  0.1408E+02
  27.644  0.6087E+00  0.1408E+02
  27.654  0.6096E+00  0.1409E+02
  27.664  0.6104E+00  0.1410E+02
  27.674  0.6112E+00  0.1410E+02
  27.684  0.6121E+00  0.1411E+02
  27.694  0.6130E+00  0.1411E+02
  27.704  0.6140E+00  0.1412E+02
  27.714  0.6149E+00  0.1413E+02
  27.724  0.6159E+00  0.1413E+02
  27.734  0.6169E+00  0.1414E+02
  27.744  0.6179E+00  0.1415E+02
  27.754  0.6189E+00  0.1415E+02
  27.764  0.6200E+00  0.1416E+02
  27.774  0.6210E+00  0.1416E+02
  27.784  0.6221E+00  0.1417E+02
  27.794  0.6232E+00  0.1418E+02
  27.804  0.6243E+00  0.1418E+02
  27.814  0.6254E+00  0.1419E+02
  27.824  0.6265E+00  0.1420E+02
  27.834  0.6276E+00  0.1420E+02
  27.844  0.6287E+00  0.1421E+02
  27.854  0.6298E+00  0.1421E+02
  27.864  0.6309E+00  0.1422E+02
  27.874  0.6321E+00  0.1423E+02
  27.884  0.6332E+00  0.1423E+02
  27.894  0.6343E+00  0.1424E+02
  27.904  0.6354E+00  0.1425E+02
  27.914  0.6365E+00  0.1425E+02
  27.924  0.6376E+00  0.1426E+02
  27.934  0.6387E+00  0.1426E+02
  27.944  0.6397E+00  0.1427E+02
  27.954  0.6408E+00  0.1428E+02
  27.964  0.6418E+00  0.1428E+02
  27.974  0.6429E+00  0.1429E+02
  27.984  0.6439E+00  0.1430E+02
  27.994  0.6449E+00  0.1430E+02
  28.004  0.6459E+00  0.1431E+02
  28.014  0.6468E+00  0.1432E+02
  28.024  0.6478E+00  0.1432E+02
  28.034  0.6487E+00  0.1433E+02
  28.044  0.6496E+00  0.1434E+02
  28.054  0.6505E+00  0.1434E+02
  28.064  0.6513E+00  0.1435E+02
  28.074  0.6521E+00  0.1436E+02
  28.084  0.6529E+00  0.1436E+02
  28.094  0.6537E+00  0.1437E+02
  28.104  0.6544E+00  0.1437E+02
  28.114  0.6552E+00  0.1438E+02
  28.124  0.6558E+00  0.1439E+02
  28.134  0.6565E+00  0.1439E+02
  28.144  0.6571E+00  0.1440E+02
  28.154  0.6577E+00  0.1441E+02
  28.164  0.6583E+00  0.1441E+02
  28.174  0.6588E+00  0.1442E+02
  28.184  0.6593E+00  0.1443E+02
  28.194  0.6598E+00  0.1443E+02
  28.204  0.6602E+00  0.1444E+02
  28.214  0.6606E+00  0.1445E+02
  28.224  0.6610E+00  0.1445E+02
  28.234  0.6614E+00  0.1446E+02
  28.244  0.6617E+00  0.1447E+02
  28.254  0.6620E+00  0.1447E+02
  28.264  0.6622E+00  0.1448E+02
  28.274  0.6624E+00  0.1449E+02
  28.284  0.6626E+00  0.1449E+02
  28.294  0.6627E+00  0.1450E+02
  28.304  0.6629E+00  0.1451E+02
  28.314  0.6629E+00  0.1451E+02
  28.324  0.6630E+00  0.1452E+02
  28.334  0.6630E+00  0.1453E+02
  28.344  0.6630E+00  0.1453E+02
  28.354  0.6630E+00  0.1454E+02
  28.364  0.6629E+00  0.1455E+02
  28.374  0.6628E+00  0.1455E+02
  28.384  0.6627E+00  0.1456E+02
  28.394  0.6625E+00  0.1457E+02
  28.404  0.6623E+00  0.1457E+02
  28.414  0.6621E+00  0.1458E+02
  28.424  0.6618E+00  0.1459E+02
  28.434  0.6616E+00  0.1459E+02
  28.444  0.6613E+00  0.1460E+02
  28.454  0.6609E+00  0.1461E+02
  28.464  0.6606E+00  0.1461E+02
  28.474  0.6602E+00  0.1462E+02
  28.484  0.6598E+00  0.1463E+02
  28.494  0.6594E+00  0.1463E+02
  28.504  0.6590E+00  0.1464E+02
  28.514  0.6585E+00  0.1465E+02
  28.524  0.6580E+00  0.1465E+02
  28.534  0.6575E+00  0.1466E+02
  28.544  0.6570E+00  0.1467E+02
  28.554  0.6564E+00  0.1467E+02
  28.564  0.6559E+00  0.1468E+02
  28.574  0.6553E+00  0.1469E+02
  28.584  0.6547E+00  0.1469E+02
  28.594  0.6542E+00  0.1470E+02
  28.604  0.6535E+00  0.1470E+02
  28.614  0.6529E+00  0.1471E+02
  28.624  0.6523E+00  0.1472E+02
  28.634  0.6517E+00  0.1472E+02
  28.644  0.6510E+00  0.1473E+02
  28.654  0.6504E+00  0.1474E+02
  28.664  0.6497E+00  0.1474E+02
  28.674  0.6491E+00  0.1475E+02
  28.684  0.6484E+00  0.1476E+02
  28.694  0.6478E+00  0.1476E+02
  28.704  0.6471E+00  0.1477E+02
  28.714  0.6465E+00  0.1478E+02
  28.724  0.6458E+00  0.1478E+02
  28.734  0.6452E+00  0.1479E+02
  28.744  0.6445E+00  0.1480E+02
  28.754  0.6439E+00  0.1480E+02
  28.764  0.6432E+00  0.1481E+02
  28.774  0.6426E+00  0.1482E+02
  28.784  0.6420E+00  0.1482E+02
  28.794  0.6414E+00  0.1483E+02
  28.804  0.6408E+00  0.1483E+02
  28.814  0.6402E+00  0.1484E+02
  28.824  0.6397E+00  0.1485E+02
  28.834  0.6391E+00  0.1485E+02
  28.844  0.6386E+00  0.1486E+02
  28.854  0.6381E+00  0.1487E+02
  28.864  0.6376E+00  0.1487E+02
  28.874  0.6371E+00  0.1488E+02
  28.884  0.6366E+00  0.1489E+02
  28.894  0.6362E+00  0.1489E+02
  28.904  0.6358E+00  0.1490E+02
  28.914  0.6354E+00  0.1490E+02
  28.924  0.6350E+00  0.1491E+02
  28.934  0.6346E+00  0.1492E+02
  28.944  0.6343E+00  0.1492E+02
  28.954  0.6340E+00  0.1493E+02
  28.964  0.6337E+00  0.1494E+02
  28.974  0.6334E+00  0.1494E+02
  28.984  0.6332E+00  0.1495E+02
  28.994  0.6330E+00  0.1496E+02
  29.004  0.6328E+00  0.1496E+02
  29.014  0.6326E+00  0.1497E+02
  29.024  0.6325E+00  0.1497E+02
  29.034  0.6324E+00  0.1498E+02
  29.044  0.6323E+00  0.1499E+02
  29.054  0.6322E+00  0.1499E+02
  29.064  0.6322E+00  0.1500E+02
  29.074  0.6322E+00  0.1501E+02
  29.084  0.6322E+00  0.1501E+02
  29.094  0.6322E+00  0.1502E+02
  29.104  0.6323E+00  0.1502E+02
  29.114  0.6324E+00  0.1503E+02
  29.124  0.6325E+00  0.1504E+02
  29.134  0.6326E+00  0.1504E+02
  29.144  0.6327E+00  0.1505E+02
  29.154  0.6329E+00  0.1506E+02
  29.164  0.6331E+00  0.1506E+02
  29.174  0.6333E+00  0.1507E+02
  29.184  0.6335E+00  0.1508E+02
  29.194  0.6338E+00  0.1508E+02
  29.204  0.6340E+00  0.1509E+02
  29.214  0.6343E+00  0.1509E+02
  29.224  0.6346E+00  0.1510E+02
  29.234  0.6349E+00  0.1511E+02
  29.244  0.6353E+00  0.1511E+02
  29.254  0.6356E+00  0.1512E+02
  29.264  0.6360E+00  0.1513E+02
  29.274  0.6363E+00  0.1513E+02
  29.284  0.6367E+00  0.1514E+02
  29.294  0.6371E+00  0.1515E+02
  29.304  0.6375E+00  0.1515E+02
  29.314  0.6379E+00  0.1516E+02
  29.324  0.6383E+00  0.1516E+02
  29.334  0.6387E+00  0.1517E+02
  29.344  0.6391E+00  0.1518E+02
  29.354  0.6395E+00  0.1518E+02
  29.364  0.6399E+00  0.1519E+02
  29.374  0.6403E+00  0.1520E+02
  29.384  0.6407E+00  0.1520E+02
  29.394  0.6411E+00  0.1521E+02
  29.404  0.6415E+00  0.1522E+02
  29.414  0.6419E+00  0.1522E+02
  29.424  0.6423E+00  0.1523E+02
  29.434  0.6427E+00  0.1523E+02
  29.444  0.6431E+00  0.1524E+02
  29.454  0.6434E+00  0.1525E+02
  29.464  0.6438E+00  0.1525E+02
  29.474  0.6441E+00  0.1526E+02
  29.484  0.6444E+00  0.1527E+02
  29.494  0.6447E+00  0.1527E+02
  29.504  0.6450E+00  0.1528E+02
  29.514  0.6453E+00  0.1529E+02
  29.524  0.6456E+00  0.1529E+02
  29.534  0.6458E+00  0.1530E+02
  29.544  0.6460E+00  0.1531E+02
  29.554  0.6462E+00  0.1531E+02
  29.564  0.6464E+00  0.1532E+02
  29.574  0.6466E+00  0.1533E+02
  29.584  0.6467E+00  0.1533E+02
  29.594  0.6468E+00  0.1534E+02
  29.604  0.6469E+00  0.1534E+02
  29.614  0.6469E+00  0.1535E+02
  29.624  0.6470E+00  0.1536E+02
  29.634  0.6470E+00  0.1536E+02
  29.644  0.6470E+00  0.1537E+02
  29.654  0.6469E+00  0.1538E+02
  29.664  0.6468E+00  0.1538E+02
  29.674  0.6467E+00  0.1539E+02
  29.684  0.6466E+00  0.1540E+02
  29.694  0.6464E+00  0.1540E+02
  29.704  0.6462E+00  0.1541E+02
  29.714  0.6460E+00  0.1542E+02
  29.724  0.6458E+00  0.1542E+02
  29.734  0.6455E+00  0.1543E+02
  29.744  0.6452E+00  0.1544E+02
  29.754  0.6449E+00  0.1544E+02
  29.764  0.6445E+00  0.1545E+02
  29.774  0.6442E+00  0.1545E+02
  29.784  0.6438E+00  0.1546E+02
  29.794  0.6433E+00  0.1547E+02
  29.804  0.6429E+00  0.1547E+02
  29.814  0.6424E+00  0.1548E+02
  29.824  0.6419E+00  0.1549E+02
  29.834  0.6414E+00  0.1549E+02
  29.844  0.6409E+00  0.1550E+02
  29.854  0.6403E+00  0.1551E+02
  29.864  0.6398E+00  0.1551E+02
  29.874  0.6392E+00  0.1552E+02
  29.884  0.6386E+00  0.1552E+02
  29.894  0.6380E+00  0.1553E+02
  29.904  0.6374E+00  0.1554E+02
  29.914  0.6367E+00  0.1554E+02
  29.924  0.6361E+00  0.1555E+02
  29.934  0.6355E+00  0.1556E+02
  29.944  0.6348E+00  0.1556E+02
  29.954  0.6342E+00  0.1557E+02
  29.964  0.6336E+00  0.1558E+02
  29.974  0.6329E+00  0.1558E+02
  29.984  0.6323E+00  0.1559E+02
  29.994  0.6317E+00  0.1559E+02
  30.004  0.6311E+00  0.1560E+02
  30.014  0.6305E+00  0.1561E+02
  30.024  0.6300E+00  0.1561E+02
  30.034  0.6294E+00  0.1562E+02
  30.044  0.6289E+00  0.1563E+02
  30.054  0.6284E+00  0.1563E+02
  30.064  0.6279E+00  0.1564E+02
  30.074  0.6274E+00  0.1565E+02
  30.084  0.6270E+00  0.1565E+02
  30.094  0.6266E+00  0.1566E+02
  30.104  0.6262E+00  0.1566E+02
  30.114  0.6259E+00  0.1567E+02
  30.124  0.6256E+00  0.1568E+02
  30.134  0.6254E+00  0.1568E+02
  30.144  0.6252E+00  0.1569E+02
  30.154  0.6251E+00  0.1570E+02
  30.164  0.6250E+00  0.1570E+02
  30.174  0.6249E+00  0.1571E+02
  30.184  0.6249E+00  0.1571E+02
  30.194  0.6250E+00  0.1572E+02
  30.204  0.6251E+00  0.1573E+02
  30.214  0.6253E+00  0.1573E+02
  30.224  0.6255E+00  0.1574E+02
  30.234  0.6258E+00  0.1575E+02
  30.244  0.6262E+00  0.1575E+02
  30.254  0.6266E+00  0.1576E+02
  30.264  0.6271E+00  0.1576E+02
  30.274  0.6277E+00  0.1577E+02
  30.284  0.6283E+00  0.1578E+02
  30.294  0.6290E+00  0.1578E+02
  30.304  0.6298E+00  0.1579E+02
  30.314  0.6307E+00  0.1580E+02
  30.324  0.6316E+00  0.1580E+02
  30.334  0.6326E+00  0.1581E+02
  30.344  0.6337E+00  0.1581E+02
  30.354  0.6348E+00  0.1582E+02
  30.364  0.6360E+00  0.1583E+02
  30.374  0.6373E+00  0.1583E+02
  30.384  0.6387E+00  0.1584E+02
  30.394  0.6402E+00  0.1585E+02
  30.404  0.6417E+00  0.1585E+02
  30.414  0.6433E+00  0.1586E+02
  30.424  0.6450E+00  0.1587E+02
  30.434  0.6467E+00  0.1587E+02
  30.444  0.6485E+00  0.1588E+02
  30.454  0.6504E+00  0.1589E+02
  30.464  0.6524E+00  0.1589E+02
  30.474  0.6545E+00  0.1590E+02
  30.484  0.6566E+00  0.1590E+02
  30.494  0.6587E+00  0.1591E+02
  30.504  0.6610E+00  0.1592E+02
  30.514  0.6633E+00  0.1592E+02
  30.524  0.6656E+00  0.1593E+02
  30.534  0.6681E+00  0.1594E+02
  30.544  0.6705E+00  0.1594E+02
  30.554  0.6731E+00  0.1595E+02
  30.564  0.6757E+00  0.1596E+02
  30.574  0.6783E+00  0.1596E+02
  30.584  0.6810E+00  0.1597E+02
  30.594  0.6837E+00  0.1598E+02
  30.604  0.6865E+00  0.1599E+02
  30.614  0.6893E+00  0.1599E+02
  30.624  0.6922E+00  0.1600E+02
  30.634  0.6950E+00  0.1601E+02
  30.644  0.6980E+00  0.1601E+02
  30.654  0.7009E+00  0.1602E+02
  30.664  0.7038E+00  0.1603E+02
  30.674  0.7068E+00  0.1603E+02
  30.684  0.7098E+00  0.1604E+02
  30.694  0.7128E+00  0.1605E+02
  30.704  0.7158E+00  0.1606E+02
  30.714  0.7188E+00  0.1606E+02
  30.724  0.7218E+00  0.1607E+02
  30.734  0.7249E+00  0.1608E+02
  30.744  0.7279E+00  0.1608E+02
  30.754  0.7308E+00  0.1609E+02
  30.764  0.7338E+00  0.1610E+02
  30.774  0.7367E+00  0.1611E+02
  30.784  0.7397E+00  0.1611E+02
  30.794  0.7425E+00  0.1612E+02
  30.804  0.7454E+00  0.1613E+02
  30.814  0.7482E+00  0.1614E+02
  30.824  0.7510E+00  0.1614E+02
  30.834  0.7537E+00  0.1615E+02
  30.844  0.7564E+00  0.1616E+02
  30.854  0.7590E+00  0.1617E+02
  30.864  0.7615E+00  0.1617E+02
  30.874  0.7640E+00  0.1618E+02
  30.884  0.7664E+00  0.1619E+02
  30.894  0.7688E+00  0.1620E+02
  30.904  0.7710E+00  0.1620E+02
  30.914  0.7732E+00  0.1621E+02
  30.924  0.7753E+00  0.1622E+02
  30.934  0.7773E+00  0.1623E+02
  30.944  0.7792E+00  0.1624E+02
  30.954  0.7810E+00  0.1624E+02
  30.964  0.7827E+00  0.1625E+02
  30.974  0.7843E+00  0.1626E+02
  30.984  0.7858E+00  0.1627E+02
  30.994  0.7872E+00  0.1628E+02
  31.004  0.7885E+00  0.1628E+02
  31.014  0.7897E+00  0.1629E+02
  31.024  0.7907E+00  0.1630E+02
  31.034  0.7916E+00  0.1631E+02
  31.044  0.7924E+00  0.1631E+02
  31.054  0.7931E+00  0.1632E+02
  31.064  0.7936E+00  0.1633E+02
  31.074  0.7940E+00  0.1634E+02
  31.084  0.7943E+00  0.1635E+02
  31.094  0.7944E+00  0.1635E+02
  31.104  0.7944E+00  0.1636E+02
  31.114  0.7942E+00  0.1637E+02
  31.124  0.7939E+00  0.1638E+02
  31.134  0.7935E+00  0.1639E+02
  31.144  0.7930E+00  0.1639E+02
  31.154  0.7923E+00  0.1640E+02
  31.164  0.7914E+00  0.1641E+02
  31.174  0.7904E+00  0.1642E+02
  31.184  0.7893E+00  0.1643E+02
  31.194  0.7880E+00  0.1643E+02
  31.204  0.7866E+00  0.1644E+02
  31.214  0.7851E+00  0.1645E+02
  31.224  0.7834E+00  0.1646E+02
  31.234  0.7816E+00  0.1646E+02
  31.244  0.7796E+00  0.1647E+02
  31.254  0.7775E+00  0.1648E+02
  31.264  0.7753E+00  0.1649E+02
  31.274  0.7729E+00  0.1650E+02
  31.284  0.7704E+00  0.1650E+02
  31.294  0.7678E+00  0.1651E+02
  31.304  0.7651E+00  0.1652E+02
  31.314  0.7622E+00  0.1653E+02
  31.324  0.7592E+00  0.1653E+02
  31.334  0.7561E+00  0.1654E+02
  31.344  0.7529E+00  0.1655E+02
  31.354  0.7496E+00  0.1656E+02
  31.364  0.7461E+00  0.1656E+02
  31.374  0.7426E+00  0.1657E+02
  31.384  0.7389E+00  0.1658E+02
  31.394  0.7352E+00  0.1659E+02
  31.404  0.7314E+00  0.1659E+02
  31.414  0.7274E+00  0.1660E+02
  31.424  0.7234E+00  0.1661E+02
  31.434  0.7193E+00  0.1662E+02
  31.444  0.7151E+00  0.1662E+02
  31.454  0.7109E+00  0.1663E+02
  31.464  0.7065E+00  0.1664E+02
  31.474  0.7021E+00  0.1664E+02
  31.484  0.6977E+00  0.1665E+02
  31.494  0.6932E+00  0.1666E+02
  31.504  0.6886E+00  0.1666E+02
  31.514  0.6840E+00  0.1667E+02
  31.524  0.6793E+00  0.1668E+02
  31.534  0.6746E+00  0.1668E+02
  31.544  0.6698E+00  0.1669E+02
  31.554  0.6650E+00  0.1670E+02
  31.564  0.6602E+00  0.1670E+02
  31.574  0.6554E+00  0.1671E+02
  31.584  0.6505E+00  0.1672E+02
  31.594  0.6456E+00  0.1672E+02
  31.604  0.6407E+00  0.1673E+02
  31.614  0.6358E+00  0.1674E+02
  31.624  0.6308E+00  0.1674E+02
  31.634  0.6259E+00  0.1675E+02
  31.644  0.6210E+00  0.1676E+02
  31.654  0.6161E+00  0.1676E+02
  31.664  0.6111E+00  0.1677E+02
  31.674  0.6062E+00  0.1677E+02
  31.684  0.6013E+00  0.1678E+02
  31.694  0.5964E+00  0.1679E+02
  31.704  0.5916E+00  0.1679E+02
  31.714  0.5867E+00  0.1680E+02
  31.724  0.5819E+00  0.1680E+02
  31.734  0.5772E+00  0.1681E+02
  31.744  0.5724E+00  0.1682E+02
  31.754  0.5677E+00  0.1682E+02
  31.764  0.5630E+00  0.1683E+02
  31.774  0.5584E+00  0.1683E+02
  31.784  0.5538E+00  0.1684E+02
  31.794  0.5492E+00  0.1684E+02
  31.804  0.5447E+00  0.1685E+02
  31.814  0.5403E+00  0.1685E+02
  31.824  0.5359E+00  0.1686E+02
  31.834  0.5315E+00  0.1686E+02
  31.844  0.5272E+00  0.1687E+02
  31.854  0.5230E+00  0.1688E+02
  31.864  0.5188E+00  0.1688E+02
  31.874  0.5147E+00  0.1689E+02
  31.884  0.5106E+00  0.1689E+02
  31.894  0.5066E+00  0.1690E+02
  31.904  0.5026E+00  0.1690E+02
  31.914  0.4988E+00  0.1691E+02
  31.924  0.4950E+00  0.1691E+02
  31.934  0.4912E+00  0.1692E+02
  31.944  0.4875E+00  0.1692E+02
  31.954  0.4839E+00  0.1693E+02
  31.964  0.4804E+00  0.1693E+02
  31.974  0.4769E+00  0.1693E+02
  31.984  0.4735E+00  0.1694E+02
  31.994  0.4701E+00  0.1694E+02
  32.004  0.4669E+00  0.1695E+02
  32.014  0.4637E+00  0.1695E+02
  32.024  0.4605E+00  0.1696E+02
  32.034  0.4575E+00  0.1696E+02
  32.044  0.4545E+00  0.1697E+02
  32.054  0.4516E+00  0.1697E+02
  32.064  0.4487E+00  0.1698E+02
  32.074  0.4459E+00  0.1698E+02
  32.084  0.4432E+00  0.1699E+02
  32.094  0.4405E+00  0.1699E+02
  32.104  0.4379E+00  0.1699E+02
  32.114  0.4354E+00  0.1700E+02
  32.124  0.4329E+00  0.1700E+02
  32.134  0.4305E+00  0.1701E+02
  32.144  0.4282E+00  0.1701E+02
  32.154  0.4259E+00  0.1702E+02
  32.164  0.4237E+00  0.1702E+02
  32.174  0.4215E+00  0.1702E+02
  32.184  0.4195E+00  0.1703E+02
  32.194  0.4174E+00  0.1703E+02
  32.204  0.4154E+00  0.1704E+02
  32.214  0.4135E+00  0.1704E+02
  32.224  0.4116E+00  0.1704E+02
  32.234  0.4098E+00  0.1705E+02
  32.244  0.4080E+00  0.1705E+02
  32.254  0.4063E+00  0.1706E+02
  32.264  0.4046E+00  0.1706E+02
  32.274  0.4030E+00  0.1707E+02
  32.284  0.4014E+00  0.1707E+02
  32.294  0.3998E+00  0.1707E+02
  32.304  0.3983E+00  0.1708E+02
  32.314  0.3968E+00  0.1708E+02
  32.324  0.3954E+00  0.1709E+02
  32.334  0.3940E+00  0.1709E+02
  32.344  0.3927E+00  0.1709E+02
  32.354  0.3913E+00  0.1710E+02
  32.364  0.3900E+00  0.1710E+02
  32.374  0.3888E+00  0.1710E+02
  32.384  0.3875E+00  0.1711E+02
  32.394  0.3863E+00  0.1711E+02
  32.404  0.3852E+00  0.1712E+02
  32.414  0.3840E+00  0.1712E+02
  32.424  0.3829E+00  0.1712E+02
  32.434  0.3817E+00  0.1713E+02
  32.444  0.3807E+00  0.1713E+02
  32.454  0.3796E+00  0.1714E+02
  32.464  0.3785E+00  0.1714E+02
  32.474  0.3775E+00  0.1714E+02
  32.484  0.3764E+00  0.1715E+02
  32.494  0.3754E+00  0.1715E+02
  32.504  0.3744E+00  0.1715E+02
  32.514  0.3734E+00  0.1716E+02
  32.524  0.3725E+00  0.1716E+02
  32.534  0.3715E+00  0.1717E+02
  32.544  0.3705E+00  0.1717E+02
  32.554  0.3696E+00  0.1717E+02
  32.564  0.3686E+00  0.1718E+02
  32.574  0.3677E+00  0.1718E+02
  32.584  0.3667E+00  0.1718E+02
  32.594  0.3658E+00  0.1719E+02
  32.604  0.3648E+00  0.1719E+02
  32.614  0.3639E+00  0.1719E+02
  32.624  0.3629E+00  0.1720E+02
  32.634  0.3620E+00  0.1720E+02
  32.644  0.3611E+00  0.1721E+02
  32.654  0.3601E+00  0.1721E+02
  32.664  0.3592E+00  0.1721E+02
  32.674  0.3582E+00  0.1722E+02
  32.684  0.3573E+00  0.1722E+02
  32.694  0.3563E+00  0.1722E+02
  32.704  0.3554E+00  0.1723E+02
  32.714  0.3544E+00  0.1723E+02
  32.724  0.3535E+00  0.1723E+02
  32.734  0.3525E+00  0.1724E+02
  32.744  0.3515E+00  0.1724E+02
  32.754  0.3505E+00  0.1724E+02
  32.764  0.3495E+00  0.1725E+02
  32.774  0.3486E+00  0.1725E+02
  32.784  0.3476E+00  0.1726E+02
  32.794  0.3465E+00  0.1726E+02
  32.804  0.3455E+00  0.1726E+02
  32.814  0.3445E+00  0.1727E+02
  32.824  0.3435E+00  0.1727E+02
  32.834  0.3424E+00  0.1727E+02
  32.844  0.3414E+00  0.1728E+02
  32.854  0.3403E+00  0.1728E+02
  32.864  0.3393E+00  0.1728E+02
  32.874  0.3382E+00  0.1729E+02
  32.884  0.3371E+00  0.1729E+02
  32.894  0.3360E+00  0.1729E+02
  32.904  0.3349E+00  0.1730E+02
  32.914  0.3338E+00  0.1730E+02
  32.924  0.3327E+00  0.1730E+02
  32.934  0.3316E+00  0.1731E+02
  32.944  0.3305E+00  0.1731E+02
  32.954  0.3293E+00  0.1731E+02
  32.964  0.3282E+00  0.1732E+02
  32.974  0.3270E+00  0.1732E+02
  32.984  0.3259E+00  0.1732E+02
  32.994  0.3247E+00  0.1733E+02
  33.004  0.3235E+00  0.1733E+02
  33.014  0.3223E+00  0.1733E+02
  33.024  0.3211E+00  0.1734E+02
  33.034  0.3199E+00  0.1734E+02
  33.044  0.3187E+00  0.1734E+02
  33.054  0.3175E+00  0.1734E+02
  33.064  0.3162E+00  0.1735E+02
  33.074  0.3150E+00  0.1735E+02
  33.084  0.3137E+00  0.1735E+02
  33.094  0.3125E+00  0.1736E+02
  33.104  0.3112E+00  0.1736E+02
  33.114  0.3099E+00  0.1736E+02
  33.124  0.3086E+00  0.1737E+02
  33.134  0.3073E+00  0.1737E+02
  33.144  0.3060E+00  0.1737E+02
  33.154  0.3047E+00  0.1738E+02
  33.164  0.3034E+00  0.1738E+02
  33.174  0.3021E+00  0.1738E+02
  33.184  0.3008E+00  0.1738E+02
  33.194  0.2995E+00  0.1739E+02
  33.204  0.2981E+00  0.1739E+02
  33.214  0.2968E+00  0.1739E+02
  33.224  0.2954E+00  0.1740E+02
  33.234  0.2941E+00  0.1740E+02
  33.244  0.2927E+00  0.1740E+02
  33.254  0.2914E+00  0.1741E+02
  33.264  0.2900E+00  0.1741E+02
  33.274  0.2887E+00  0.1741E+02
  33.284  0.2873E+00  0.1741E+02
  33.294  0.2860E+00  0.1742E+02
  33.304  0.2846E+00  0.1742E+02
  33.314  0.2832E+00  0.1742E+02
  33.324  0.2819E+00  0.1743E+02
  33.334  0.2805E+00  0.1743E+02
  33.344  0.2792E+00  0.1743E+02
  33.354  0.2778E+00  0.1743E+02
  33.364  0.2765E+00  0.1744E+02
  33.374  0.2752E+00  0.1744E+02
  33.384  0.2738E+00  0.1744E+02
  33.394  0.2725E+00  0.1745E+02
  33.404  0.2712E+00  0.1745E+02
  33.414  0.2699E+00  0.1745E+02
  33.424  0.2685E+00  0.1745E+02
  33.434  0.2672E+00  0.1746E+02
  33.444  0.2660E+00  0.1746E+02
  33.454  0.2647E+00  0.1746E+02
  33.464  0.2634E+00  0.1746E+02
  33.474  0.2622E+00  0.1747E+02
  33.484  0.2609E+00  0.1747E+02
  33.494  0.2597E+00  0.1747E+02
  33.504  0.2585E+00  0.1747E+02
  33.514  0.2573E+00  0.1748E+02
  33.524  0.2561E+00  0.1748E+02
  33.534  0.2549E+00  0.1748E+02
  33.544  0.2538E+00  0.1748E+02
  33.554  0.2526E+00  0.1749E+02
  33.564  0.2515E+00  0.1749E+02
  33.574  0.2504E+00  0.1749E+02
  33.584  0.2493E+00  0.1749E+02
  33.594  0.2482E+00  0.1750E+02
  33.604  0.2472E+00  0.1750E+02
  33.614  0.2461E+00  0.1750E+02
  33.624  0.2451E+00  0.1750E+02
  33.634  0.2441E+00  0.1751E+02
  33.644  0.2431E+00  0.1751E+02
  33.654  0.2422E+00  0.1751E+02
  33.664  0.2412E+00  0.1751E+02
  33.674  0.2403E+00  0.1752E+02
  33.684  0.2394E+00  0.1752E+02
  33.694  0.2385E+00  0.1752E+02
  33.704  0.2376E+00  0.1752E+02
  33.714  0.2368E+00  0.1753E+02
  33.724  0.2359E+00  0.1753E+02
  33.734  0.2351E+00  0.1753E+02
  33.744  0.2343E+00  0.1753E+02
  33.754  0.2335E+00  0.1754E+02
  33.764  0.2328E+00  0.1754E+02
  33.774  0.2320E+00  0.1754E+02
  33.784  0.2313E+00  0.1754E+02
  33.794  0.2306E+00  0.1754E+02
  33.804  0.2298E+00  0.1755E+02
  33.814  0.2292E+00  0.1755E+02
  33.824  0.2285E+00  0.1755E+02
  33.834  0.2278E+00  0.1755E+02
  33.844  0.2272E+00  0.1756E+02
  33.854  0.2265E+00  0.1756E+02
  33.864  0.2259E+00  0.1756E+02
  33.874  0.2253E+00  0.1756E+02
  33.884  0.2246E+00  0.1756E+02
  33.894  0.2240E+00  0.1757E+02
  33.904  0.2234E+00  0.1757E+02
  33.914  0.2228E+00  0.1757E+02
  33.924  0.2223E+00  0.1757E+02
  33.934  0.2217E+00  0.1758E+02
  33.944  0.2211E+00  0.1758E+02
  33.954  0.2205E+00  0.1758E+02
  33.964  0.2200E+00  0.1758E+02
  33.974  0.2194E+00  0.1758E+02
  33.984  0.2188E+00  0.1759E+02
  33.994  0.2183E+00  0.1759E+02
  34.004  0.2177E+00  0.1759E+02
  34.014  0.2171E+00  0.1759E+02
  34.024  0.2166E+00  0.1760E+02
  34.034  0.2160E+00  0.1760E+02
  34.044  0.2154E+00  0.1760E+02
  34.054  0.2149E+00  0.1760E+02
  34.064  0.2143E+00  0.1760E+02
  34.074  0.2137E+00  0.1761E+02
  34.084  0.2131E+00  0.1761E+02
  34.094  0.2125E+00  0.1761E+02
  34.104  0.2119E+00  0.1761E+02
  34.114  0.2113E+00  0.1762E+02
  34.124  0.2107E+00  0.1762E+02
  34.134  0.2101E+00  0.1762E+02
  34.144  0.2095E+00  0.1762E+02
  34.154  0.2089E+00  0.1762E+02
  34.164  0.2082E+00  0.1763E+02
  34.174  0.2076E+00  0.1763E+02
  34.184  0.2070E+00  0.1763E+02
  34.194  0.2063E+00  0.1763E+02
  34.204  0.2056E+00  0.1763E+02
  34.214  0.2050E+00  0.1764E+02
  34.224  0.2043E+00  0.1764E+02
  34.234  0.2036E+00  0.1764E+02
  34.244  0.2029E+00  0.1764E+02
  34.254  0.2022E+00  0.1764E+02
  34.264  0.2015E+00  0.1765E+02
  34.274  0.2008E+00  0.1765E+02
  34.284  0.2001E+00  0.1765E+02
  34.294  0.1994E+00  0.1765E+02
  34.304  0.1986E+00  0.1765E+02
  34.314  0.1979E+00  0.1766E+02
  34.324  0.1972E+00  0.1766E+02
  34.334  0.1964E+00  0.1766E+02
  34.344  0.1957E+00  0.1766E+02
  34.354  0.1949E+00  0.1766E+02
  34.364  0.1942E+00  0.1767E+02
  34.374  0.1934E+00  0.1767E+02
  34.384  0.1927E+00  0.1767E+02
  34.394  0.1919E+00  0.1767E+02
  34.404  0.1912E+00  0.1767E+02
  34.414  0.1904E+00  0.1768E+02
  34.424  0.1897E+00  0.1768E+02
  34.434  0.1890E+00  0.1768E+02
  34.444  0.1882E+00  0.1768E+02
  34.454  0.1875E+00  0.1768E+02
  34.464  0.1868E+00  0.1768E+02
  34.474  0.1860E+00  0.1769E+02
  34.484  0.1853E+00  0.1769E+02
  34.494  0.1846E+00  0.1769E+02
  34.504  0.1839E+00  0.1769E+02
  34.514  0.1832E+00  0.1769E+02
  34.524  0.1826E+00  0.1770E+02
  34.534  0.1819E+00  0.1770E+02
  34.544  0.1812E+00  0.1770E+02
  34.554  0.1806E+00  0.1770E+02
  34.564  0.1800E+00  0.1770E+02
  34.574  0.1793E+00  0.1770E+02
  34.584  0.1787E+00  0.1771E+02
  34.594  0.1782E+00  0.1771E+02
  34.604  0.1776E+00  0.1771E+02
  34.614  0.1770E+00  0.1771E+02
  34.624  0.1765E+00  0.1771E+02
  34.634  0.1760E+00  0.1772E+02
  34.644  0.1754E+00  0.1772E+02
  34.654  0.1750E+00  0.1772E+02
  34.664  0.1745E+00  0.1772E+02
  34.674  0.1740E+00  0.1772E+02
  34.684  0.1736E+00  0.1772E+02
  34.694  0.1732E+00  0.1773E+02
  34.704  0.1728E+00  0.1773E+02
  34.714  0.1724E+00  0.1773E+02
  34.724  0.1721E+00  0.1773E+02
  34.734  0.1717E+00  0.1773E+02
  34.744  0.1714E+00  0.1773E+02
  34.754  0.1711E+00  0.1774E+02
  34.764  0.1708E+00  0.1774E+02
  34.774  0.1706E+00  0.1774E+02
  34.784  0.1703E+00  0.1774E+02
  34.794  0.1701E+00  0.1774E+02
  34.804  0.1699E+00  0.1774E+02
  34.814  0.1697E+00  0.1775E+02
  34.824  0.1696E+00  0.1775E+02
  34.834  0.1694E+00  0.1775E+02
  34.844  0.1693E+00  0.1775E+02
  34.854  0.1692E+00  0.1775E+02
  34.864  0.1691E+00  0.1775E+02
  34.874  0.1690E+00  0.1776E+02
  34.884  0.1689E+00  0.1776E+02
  34.894  0.1689E+00  0.1776E+02
  34.904  0.1688E+00  0.1776E+02
  34.914  0.1688E+00  0.1776E+02
  34.924  0.1688E+00  0.1777E+02
  34.934  0.1688E+00  0.1777E+02
  34.944  0.1688E+00  0.1777E+02
  34.954  0.1688E+00  0.1777E+02
  34.964  0.1688E+00  0.1777E+02
  34.974  0.1689E+00  0.1777E+02
  34.984  0.1689E+00  0.1778E+02
  34.994  0.1690E+00  0.1778E+02
  35.004  0.1690E+00  0.1778E+02
  35.014  0.1691E+00  0.1778E+02
  35.024  0.1691E+00  0.1778E+02
  35.034  0.1692E+00  0.1778E+02
  35.044  0.1693E+00  0.1779E+02
  35.054  0.1693E+00  0.1779E+02
  35.064  0.1694E+00  0.1779E+02
  35.074  0.1695E+00  0.1779E+02
  35.084  0.1695E+00  0.1779E+02
  35.094  0.1696E+00  0.1779E+02
  35.104  0.1696E+00  0.1780E+02
  35.114  0.1696E+00  0.1780E+02
  35.124  0.1697E+00  0.1780E+02
  35.134  0.1697E+00  0.1780E+02
  35.144  0.1697E+00  0.1780E+02
  35.154  0.1697E+00  0.1780E+02
  35.164  0.1697E+00  0.1781E+02
  35.174  0.1696E+00  0.1781E+02
  35.184  0.1696E+00  0.1781E+02
  35.194  0.1695E+00  0.1781E+02
  35.204  0.1695E+00  0.1781E+02
  35.214  0.1694E+00  0.1781E+02
  35.224  0.1692E+00  0.1782E+02
  35.234  0.1691E+00  0.1782E+02
  35.244  0.1690E+00  0.1782E+02
  35.254  0.1688E+00  0.1782E+02
  35.264  0.1686E+00  0.1782E+02
  35.274  0.1684E+00  0.1782E+02
  35.284  0.1681E+00  0.1783E+02
  35.294  0.1679E+00  0.1783E+02
  35.304  0.1676E+00  0.1783E+02
  35.314  0.1673E+00  0.1783E+02
  35.324  0.1669E+00  0.1783E+02
  35.334  0.1665E+00  0.1783E+02
  35.344  0.1662E+00  0.1784E+02
  35.354  0.1657E+00  0.1784E+02
  35.364  0.1653E+00  0.1784E+02
  35.374  0.1648E+00  0.1784E+02
  35.384  0.1643E+00  0.1784E+02
  35.394  0.1638E+00  0.1784E+02
  35.404  0.1632E+00  0.1785E+02
  35.414  0.1626E+00  0.1785E+02
  35.424  0.1620E+00  0.1785E+02
  35.434  0.1614E+00  0.1785E+02
  35.444  0.1607E+00  0.1785E+02
  35.454  0.1600E+00  0.1785E+02
  35.464  0.1593E+00  0.1786E+02
  35.474  0.1586E+00  0.1786E+02
  35.484  0.1578E+00  0.1786E+02
  35.494  0.1570E+00  0.1786E+02
  35.504  0.1562E+00  0.1786E+02
  35.514  0.1553E+00  0.1786E+02
  35.524  0.1544E+00  0.1786E+02
  35.534  0.1535E+00  0.1787E+02
  35.544  0.1526E+00  0.1787E+02
  35.554  0.1517E+00  0.1787E+02
  35.564  0.1507E+00  0.1787E+02
  35.574  0.1497E+00  0.1787E+02
  35.584  0.1487E+00  0.1787E+02
  35.594  0.1477E+00  0.1788E+02
  35.604  0.1467E+00  0.1788E+02
  35.614  0.1456E+00  0.1788E+02
  35.624  0.1445E+00  0.1788E+02
  35.634  0.1434E+00  0.1788E+02
  35.644  0.1423E+00  0.1788E+02
  35.654  0.1412E+00  0.1788E+02
  35.664  0.1401E+00  0.1789E+02
  35.674  0.1390E+00  0.1789E+02
  35.684  0.1378E+00  0.1789E+02
  35.694  0.1366E+00  0.1789E+02
  35.704  0.1355E+00  0.1789E+02
  35.714  0.1343E+00  0.1789E+02
  35.724  0.1331E+00  0.1789E+02
  35.734  0.1320E+00  0.1790E+02
  35.744  0.1308E+00  0.1790E+02
  35.754  0.1296E+00  0.1790E+02
  35.764  0.1284E+00  0.1790E+02
  35.774  0.1273E+00  0.1790E+02
  35.784  0.1261E+00  0.1790E+02
  35.794  0.1249E+00  0.1790E+02
  35.804  0.1238E+00  0.1790E+02
  35.814  0.1226E+00  0.1791E+02
  35.824  0.1214E+00  0.1791E+02
  35.834  0.1203E+00  0.1791E+02
  35.844  0.1192E+00  0.1791E+02
  35.854  0.1180E+00  0.1791E+02
  35.864  0.1169E+00  0.1791E+02
  35.874  0.1158E+00  0.1791E+02
  35.884  0.1147E+00  0.1791E+02
  35.894  0.1137E+00  0.1791E+02
  35.904  0.1126E+00  0.1792E+02
  35.914  0.1115E+00  0.1792E+02
  35.924  0.1105E+00  0.1792E+02
  35.934  0.1095E+00  0.1792E+02
  35.944  0.1085E+00  0.1792E+02
  35.954  0.1075E+00  0.1792E+02
  35.964  0.1066E+00  0.1792E+02
  35.974  0.1056E+00  0.1792E+02
  35.984  0.1047E+00  0.1792E+02
  35.994  0.1038E+00  0.1793E+02
  36.004  0.1029E+00  0.1793E+02
  36.014  0.1020E+00  0.1793E+02
  36.024  0.1012E+00  0.1793E+02
  36.034  0.1003E+00  0.1793E+02
  36.044  0.9950E-01  0.1793E+02
  36.054  0.9870E-01  0.1793E+02
  36.064  0.9792E-01  0.1793E+02
  36.074  0.9715E-01  0.1793E+02
  36.084  0.9641E-01  0.1793E+02
  36.094  0.9568E-01  0.1794E+02
  36.104  0.9497E-01  0.1794E+02
  36.114  0.9427E-01  0.1794E+02
  36.124  0.9359E-01  0.1794E+02
  36.134  0.9292E-01  0.1794E+02
  36.144  0.9227E-01  0.1794E+02
  36.154  0.9163E-01  0.1794E+02
  36.164  0.9101E-01  0.1794E+02
  36.174  0.9039E-01  0.1794E+02
  36.184  0.8979E-01  0.1794E+02
  36.194  0.8920E-01  0.1794E+02
  36.204  0.8862E-01  0.1795E+02
  36.214  0.8805E-01  0.1795E+02
  36.224  0.8748E-01  0.1795E+02
  36.234  0.8692E-01  0.1795E+02
  36.244  0.8637E-01  0.1795E+02
  36.254  0.8582E-01  0.1795E+02
  36.264  0.8528E-01  0.1795E+02
  36.274  0.8474E-01  0.1795E+02
  36.284  0.8420E-01  0.1795E+02
  36.294  0.8367E-01  0.1795E+02
  36.304  0.8313E-01  0.1795E+02
  36.314  0.8259E-01  0.1795E+02
  36.324  0.8205E-01  0.1796E+02
  36.334  0.8151E-01  0.1796E+02
  36.344  0.8097E-01  0.1796E+02
  36.354  0.8042E-01  0.1796E+02
  36.364  0.7987E-01  0.1796E+02
  36.374  0.7931E-01  0.1796E+02
  36.384  0.7874E-01  0.1796E+02
  36.394  0.7817E-01  0.1796E+02
  36.404  0.7758E-01  0.1796E+02
  36.414  0.7699E-01  0.1796E+02
  36.424  0.7639E-01  0.1796E+02
  36.434  0.7578E-01  0.1796E+02
  36.444  0.7516E-01  0.1796E+02
  36.454  0.7453E-01  0.1797E+02
  36.464  0.7389E-01  0.1797E+02
  36.474  0.7323E-01  0.1797E+02
  36.484  0.7256E-01  0.1797E+02
  36.494  0.7188E-01  0.1797E+02
  36.504  0.7119E-01  0.1797E+02
  36.514  0.7048E-01  0.1797E+02
  36.524  0.6976E-01  0.1797E+02
  36.534  0.6903E-01  0.1797E+02
  36.544  0.6828E-01  0.1797E+02
  36.554  0.6752E-01  0.1797E+02
  36.564  0.6675E-01  0.1797E+02
  36.574  0.6596E-01  0.1797E+02
  36.584  0.6516E-01  0.1797E+02
  36.594  0.6435E-01  0.1798E+02
  36.604  0.6352E-01  0.1798E+02
  36.614  0.6269E-01  0.1798E+02
  36.624  0.6183E-01  0.1798E+02
  36.634  0.6097E-01  0.1798E+02
  36.644  0.6010E-01  0.1798E+02
  36.654  0.5921E-01  0.1798E+02
  36.664  0.5832E-01  0.1798E+02
  36.674  0.5741E-01  0.1798E+02
  36.684  0.5650E-01  0.1798E+02
  36.694  0.5558E-01  0.1798E+02
  36.704  0.5465E-01  0.1798E+02
  36.714  0.5371E-01  0.1798E+02
  36.724  0.5276E-01  0.1798E+02
  36.734  0.5181E-01  0.1798E+02
  36.744  0.5085E-01  0.1798E+02
  36.754  0.4989E-01  0.1798E+02
  36.764  0.4893E-01  0.1798E+02
  36.774  0.4796E-01  0.1799E+02
  36.784  0.4699E-01  0.1799E+02
  36.794  0.4601E-01  0.1799E+02
  36.804  0.4504E-01  0.1799E+02
  36.814  0.4406E-01  0.1799E+02
  36.824  0.4309E-01  0.1799E+02
  36.834  0.4212E-01  0.1799E+02
  36.844  0.4115E-01  0.1799E+02
  36.854  0.4018E-01  0.1799E+02
  36.864  0.3921E-01  0.1799E+02
  36.874  0.3825E-01  0.1799E+02
  36.884  0.3730E-01  0.1799E+02
  36.894  0.3635E-01  0.1799E+02
  36.904  0.3541E-01  0.1799E+02
  36.914  0.3447E-01  0.1799E+02
  36.924  0.3354E-01  0.1799E+02
  36.934  0.3263E-01  0.1799E+02
  36.944  0.3172E-01  0.1799E+02
  36.954  0.3082E-01  0.1799E+02
  36.964  0.2993E-01  0.1799E+02
  36.974  0.2905E-01  0.1799E+02
  36.984  0.2818E-01  0.1799E+02
  36.994  0.2732E-01  0.1799E+02
  37.004  0.2648E-01  0.1799E+02
  37.014  0.2565E-01  0.1799E+02
  37.024  0.2483E-01  0.1799E+02
  37.034  0.2402E-01  0.1799E+02
  37.044  0.2323E-01  0.1799E+02
  37.054  0.2246E-01  0.1800E+02
  37.064  0.2169E-01  0.1800E+02
  37.074  0.2095E-01  0.1800E+02
  37.084  0.2022E-01  0.1800E+02
  37.094  0.1950E-01  0.1800E+02
  37.104  0.1880E-01  0.1800E+02
  37.114  0.1811E-01  0.1800E+02
  37.124  0.1744E-01  0.1800E+02
  37.134  0.1679E-01  0.1800E+02
  37.144  0.1615E-01  0.1800E+02
  37.154  0.1553E-01  0.1800E+02
  37.164  0.1492E-01  0.1800E+02
  37.174  0.1433E-01  0.1800E+02
  37.184  0.1375E-01  0.1800E+02
  37.194  0.1319E-01  0.1800E+02
  37.204  0.1265E-01  0.1800E+02
  37.214  0.1212E-01  0.1800E+02
  37.224  0.1161E-01  0.1800E+02
  37.234  0.1112E-01  0.1800E+02
  37.244  0.1064E-01  0.1800E+02
  37.254  0.1017E-01  0.1800E+02
  37.264  0.9721E-02  0.1800E+02
  37.274  0.9286E-02  0.1800E+02
  37.284  0.8865E-02  0.1800E+02
  37.294  0.8459E-02  0.1800E+02
  37.304  0.8067E-02  0.1800E+02
  37.314  0.7689E-02  0.1800E+02
  37.324  0.7324E-02  0.1800E+02
  37.334  0.6973E-02  0.1800E+02
  37.344  0.6635E-02  0.1800E+02
  37.354  0.6310E-02  0.1800E+02
  37.364  0.5998E-02  0.1800E+02
  37.374  0.5698E-02  0.1800E+02
  37.384  0.5410E-02  0.1800E+02
  37.394  0.5133E-02  0.1800E+02
  37.404  0.4869E-02  0.1800E+02
  37.414  0.4615E-02  0.1800E+02
  37.424  0.4372E-02  0.1800E+02
  37.434  0.4139E-02  0.1800E+02
  37.444  0.3917E-02  0.1800E+02
  37.454  0.3704E-02  0.1800E+02
  37.464  0.3502E-02  0.1800E+02
  37.474  0.3308E-02  0.1800E+02
  37.484  0.3123E-02  0.1800E+02
  37.494  0.2947E-02  0.1800E+02
  37.504  0.2780E-02  0.1800E+02
  37.514  0.2620E-02  0.1800E+02
  37.524  0.2468E-02  0.1800E+02
  37.534  0.2324E-02  0.1800E+02
  37.544  0.2187E-02  0.1800E+02
  37.554  0.2057E-02  0.1800E+02
  37.564  0.1933E-02  0.1800E+02
  37.574  0.1816E-02  0.1800E+02
  37.584  0.1705E-02  0.1800E+02
  37.594  0.1600E-02  0.1800E+02
  37.604  0.1501E-02  0.1800E+02
  37.614  0.1407E-02  0.1800E+02
  37.624  0.1318E-02  0.1800E+02
  37.634  0.1234E-02  0.1800E+02
  37.644  0.1154E-02  0.1800E+02
  37.654  0.1079E-02  0.1800E+02
  37.664  0.1009E-02  0.1800E+02
  37.674  0.9425E-03  0.1800E+02
  37.684  0.8799E-03  0.1800E+02
  37.694  0.8210E-03  0.1800E+02
  37.704  0.7656E-03  0.1800E+02
  37.714  0.7135E-03  0.1800E+02
  37.724  0.6646E-03  0.1800E+02
  37.734  0.6187E-03  0.1800E+02
  37.744  0.5756E-03  0.1800E+02
  37.754  0.5353E-03  0.1800E+02
  37.764  0.4974E-03  0.1800E+02
  37.774  0.4620E-03  0.1800E+02
  37.784  0.4289E-03  0.1800E+02
  37.794  0.3979E-03  0.1800E+02
  37.804  0.3689E-03  0.1800E+02
  37.814  0.3418E-03  0.1800E+02
  37.824  0.3166E-03  0.1800E+02
  37.834  0.2930E-03  0.1800E+02
  37.844  0.2711E-03  0.1800E+02
  37.854  0.2506E-03  0.1800E+02
  37.864  0.2316E-03  0.1800E+02
  37.874  0.2138E-03  0.1800E+02
  37.884  0.1973E-03  0.1800E+02
  37.894  0.1820E-03  0.1800E+02
  37.904  0.1678E-03  0.1800E+02
  37.914  0.1546E-03  0.1800E+02
  37.924  0.1423E-03  0.1800E+02
  37.934  0.1310E-03  0.1800E+02
  37.944  0.1205E-03  0.1800E+02
  37.954  0.1107E-03  0.1800E+02
  37.964  0.1017E-03  0.1800E+02
  37.974  0.9338E-04  0.1800E+02
  37.984  0.8568E-04  0.1800E+02
  37.994  0.7857E-04  0.1800E+02
  38.004  0.7200E-04  0.1800E+02
  38.014  0.6595E-04  0.1800E+02
  38.024  0.6037E-04  0.1800E+02
  38.034  0.5523E-04  0.1800E+02
  38.044  0.5050E-04  0.1800E+02
  38.054  0.4614E-04  0.1800E+02
  38.064  0.4214E-04  0.1800E+02
  38.074  0.3846E-04  0.1800E+02
  38.084  0.3508E-04  0.1800E+02
  38.094  0.3198E-04  0.1800E+02
  38.104  0.2913E-04  0.1800E+02
  38.114  0.2653E-04  0.1800E+02
  38.124  0.2414E-04  0.1800E+02
  38.134  0.2195E-04  0.1800E+02
  38.144  0.1995E-04  0.1800E+02
  38.154  0.1812E-04  0.1800E+02
  38.164  0.1645E-04  0.1800E+02
  38.174  0.1493E-04  0.1800E+02
  38.184  0.1353E-04  0.1800E+02
  38.194  0.1226E-04  0.1800E+02
  38.204  0.1111E-04  0.1800E+02
  38.214  0.1005E-04  0.1800E+02
  38.224  0.9092E-05  0.1800E+02
  38.234  0.8219E-05  0.1800E+02
  38.244  0.7426E-05  0.1800E+02
  38.254  0.6705E-05  0.1800E+02
  38.264  0.6050E-05  0.1800E+02
  38.274  0.5456E-05  0.1800E+02
  38.284  0.4917E-05  0.1800E+02
  38.294  0.4429E-05  0.1800E+02
  38.304  0.3987E-05  0.1800E+02
  38.314  0.3587E-05  0.1800E+02
  38.324  0.3225E-05  0.1800E+02
  38.334  0.2898E-05  0.1800E+02
  38.344  0.2602E-05  0.1800E+02
  38.354  0.2335E-05  0.1800E+02
  38.364  0.2094E-05  0.1800E+02
  38.374  0.1877E-05  0.1800E+02
  38.384  0.1682E-05  0.1800E+02
  38.394  0.1505E-05  0.1800E+02
  38.404  0.1347E-05  0.1800E+02
  38.414  0.1204E-05  0.1800E+02
  38.424  0.1076E-05  0.1800E+02
  38.434  0.9611E-06  0.1800E+02
  38.444  0.8578E-06  0.1800E+02
  38.454  0.7651E-06  0.1800E+02
  38.464  0.6820E-06  0.1800E+02
  38.474  0.6076E-06  0.1800E+02
