#  E (eV)   dos(E)     Int dos(E) EFermi =   17.619 eV
  -9.237  0.3843E-06  0.3843E-08
  -9.227  0.4299E-06  0.8142E-08
  -9.217  0.4807E-06  0.1295E-07
  -9.207  0.5371E-06  0.1832E-07
  -9.197  0.5998E-06  0.2432E-07
  -9.187  0.6694E-06  0.3101E-07
  -9.177  0.7466E-06  0.3848E-07
  -9.167  0.8322E-06  0.4680E-07
  -9.157  0.9270E-06  0.5607E-07
  -9.147  0.1032E-05  0.6639E-07
  -9.137  0.1148E-05  0.7787E-07
  -9.127  0.1277E-05  0.9064E-07
  -9.117  0.1419E-05  0.1048E-06
  -9.107  0.1576E-05  0.1206E-06
  -9.097  0.1749E-05  0.1381E-06
  -9.087  0.1940E-05  0.1575E-06
  -9.077  0.2151E-05  0.1790E-06
  -9.067  0.2383E-05  0.2028E-06
  -9.057  0.2639E-05  0.2292E-06
  -9.047  0.2920E-05  0.2584E-06
  -9.037  0.3230E-05  0.2907E-06
  -9.027  0.3570E-05  0.3264E-06
  -9.017  0.3943E-05  0.3658E-06
  -9.007  0.4354E-05  0.4094E-06
  -8.997  0.4804E-05  0.4574E-06
  -8.987  0.5297E-05  0.5104E-06
  -8.977  0.5838E-05  0.5688E-06
  -8.967  0.6430E-05  0.6331E-06
  -8.957  0.7078E-05  0.7038E-06
  -8.947  0.7787E-05  0.7817E-06
  -8.937  0.8562E-05  0.8673E-06
  -8.927  0.9409E-05  0.9614E-06
  -8.917  0.1033E-04  0.1065E-05
  -8.907  0.1134E-04  0.1178E-05
  -8.897  0.1244E-04  0.1303E-05
  -8.887  0.1364E-04  0.1439E-05
  -8.877  0.1495E-04  0.1589E-05
  -8.867  0.1637E-04  0.1752E-05
  -8.857  0.1792E-04  0.1932E-05
  -8.847  0.1961E-04  0.2128E-05
  -8.837  0.2144E-04  0.2342E-05
  -8.827  0.2342E-04  0.2576E-05
  -8.817  0.2558E-04  0.2832E-05
  -8.807  0.2792E-04  0.3111E-05
  -8.797  0.3046E-04  0.3416E-05
  -8.787  0.3321E-04  0.3748E-05
  -8.777  0.3619E-04  0.4110E-05
  -8.767  0.3942E-04  0.4504E-05
  -8.757  0.4291E-04  0.4933E-05
  -8.747  0.4668E-04  0.5400E-05
  -8.737  0.5076E-04  0.5908E-05
  -8.727  0.5517E-04  0.6459E-05
  -8.717  0.5992E-04  0.7059E-05
  -8.707  0.6506E-04  0.7709E-05
  -8.697  0.7059E-04  0.8415E-05
  -8.687  0.7655E-04  0.9181E-05
  -8.677  0.8298E-04  0.1001E-04
  -8.667  0.8989E-04  0.1091E-04
  -8.657  0.9733E-04  0.1188E-04
  -8.647  0.1053E-03  0.1294E-04
  -8.637  0.1139E-03  0.1408E-04
  -8.627  0.1232E-03  0.1531E-04
  -8.617  0.1331E-03  0.1664E-04
  -8.607  0.1437E-03  0.1808E-04
  -8.597  0.1551E-03  0.1963E-04
  -8.587  0.1674E-03  0.2130E-04
  -8.577  0.1805E-03  0.2311E-04
  -8.567  0.1945E-03  0.2505E-04
  -8.557  0.2095E-03  0.2715E-04
  -8.547  0.2256E-03  0.2940E-04
  -8.537  0.2428E-03  0.3183E-04
  -8.527  0.2611E-03  0.3444E-04
  -8.517  0.2807E-03  0.3725E-04
  -8.507  0.3016E-03  0.4026E-04
  -8.497  0.3239E-03  0.4350E-04
  -8.487  0.3477E-03  0.4698E-04
  -8.477  0.3730E-03  0.5071E-04
  -8.467  0.4000E-03  0.5471E-04
  -8.457  0.4288E-03  0.5900E-04
  -8.447  0.4593E-03  0.6359E-04
  -8.437  0.4918E-03  0.6851E-04
  -8.427  0.5264E-03  0.7377E-04
  -8.417  0.5631E-03  0.7940E-04
  -8.407  0.6020E-03  0.8542E-04
  -8.397  0.6433E-03  0.9186E-04
  -8.387  0.6871E-03  0.9873E-04
  -8.377  0.7336E-03  0.1061E-03
  -8.367  0.7828E-03  0.1139E-03
  -8.357  0.8349E-03  0.1222E-03
  -8.347  0.8900E-03  0.1311E-03
  -8.337  0.9483E-03  0.1406E-03
  -8.327  0.1010E-02  0.1507E-03
  -8.317  0.1075E-02  0.1615E-03
  -8.307  0.1144E-02  0.1729E-03
  -8.297  0.1216E-02  0.1851E-03
  -8.287  0.1293E-02  0.1980E-03
  -8.277  0.1374E-02  0.2117E-03
  -8.267  0.1459E-02  0.2263E-03
  -8.257  0.1548E-02  0.2418E-03
  -8.247  0.1642E-02  0.2582E-03
  -8.237  0.1741E-02  0.2756E-03
  -8.227  0.1846E-02  0.2941E-03
  -8.217  0.1955E-02  0.3137E-03
  -8.207  0.2070E-02  0.3344E-03
  -8.197  0.2190E-02  0.3563E-03
  -8.187  0.2317E-02  0.3794E-03
  -8.177  0.2450E-02  0.4039E-03
  -8.167  0.2588E-02  0.4298E-03
  -8.157  0.2734E-02  0.4571E-03
  -8.147  0.2886E-02  0.4860E-03
  -8.137  0.3045E-02  0.5165E-03
  -8.127  0.3212E-02  0.5486E-03
  -8.117  0.3386E-02  0.5824E-03
  -8.107  0.3567E-02  0.6181E-03
  -8.097  0.3757E-02  0.6557E-03
  -8.087  0.3954E-02  0.6952E-03
  -8.077  0.4160E-02  0.7368E-03
  -8.067  0.4374E-02  0.7806E-03
  -8.057  0.4597E-02  0.8265E-03
  -8.047  0.4830E-02  0.8748E-03
  -8.037  0.5071E-02  0.9255E-03
  -8.027  0.5322E-02  0.9788E-03
  -8.017  0.5582E-02  0.1035E-02
  -8.007  0.5853E-02  0.1093E-02
  -7.997  0.6133E-02  0.1154E-02
  -7.987  0.6423E-02  0.1219E-02
  -7.977  0.6724E-02  0.1286E-02
  -7.967  0.7036E-02  0.1356E-02
  -7.957  0.7358E-02  0.1430E-02
  -7.947  0.7691E-02  0.1507E-02
  -7.937  0.8036E-02  0.1587E-02
  -7.927  0.8391E-02  0.1671E-02
  -7.917  0.8758E-02  0.1759E-02
  -7.907  0.9136E-02  0.1850E-02
  -7.897  0.9526E-02  0.1945E-02
  -7.887  0.9928E-02  0.2045E-02
  -7.877  0.1034E-01  0.2148E-02
  -7.867  0.1077E-01  0.2256E-02
  -7.857  0.1120E-01  0.2368E-02
  -7.847  0.1165E-01  0.2484E-02
  -7.837  0.1211E-01  0.2605E-02
  -7.827  0.1258E-01  0.2731E-02
  -7.817  0.1307E-01  0.2862E-02
  -7.807  0.1357E-01  0.2997E-02
  -7.797  0.1407E-01  0.3138E-02
  -7.787  0.1459E-01  0.3284E-02
  -7.777  0.1513E-01  0.3435E-02
  -7.767  0.1567E-01  0.3592E-02
  -7.757  0.1622E-01  0.3754E-02
  -7.747  0.1679E-01  0.3922E-02
  -7.737  0.1737E-01  0.4096E-02
  -7.727  0.1795E-01  0.4275E-02
  -7.717  0.1855E-01  0.4461E-02
  -7.707  0.1916E-01  0.4652E-02
  -7.697  0.1978E-01  0.4850E-02
  -7.687  0.2041E-01  0.5054E-02
  -7.677  0.2105E-01  0.5265E-02
  -7.667  0.2170E-01  0.5482E-02
  -7.657  0.2235E-01  0.5705E-02
  -7.647  0.2302E-01  0.5936E-02
  -7.637  0.2370E-01  0.6173E-02
  -7.627  0.2438E-01  0.6416E-02
  -7.617  0.2507E-01  0.6667E-02
  -7.607  0.2577E-01  0.6925E-02
  -7.597  0.2647E-01  0.7189E-02
  -7.587  0.2718E-01  0.7461E-02
  -7.577  0.2790E-01  0.7740E-02
  -7.567  0.2863E-01  0.8027E-02
  -7.557  0.2936E-01  0.8320E-02
  -7.547  0.3009E-01  0.8621E-02
  -7.537  0.3083E-01  0.8929E-02
  -7.527  0.3157E-01  0.9245E-02
  -7.517  0.3232E-01  0.9568E-02
  -7.507  0.3307E-01  0.9899E-02
  -7.497  0.3382E-01  0.1024E-01
  -7.487  0.3457E-01  0.1058E-01
  -7.477  0.3533E-01  0.1094E-01
  -7.467  0.3609E-01  0.1130E-01
  -7.457  0.3685E-01  0.1167E-01
  -7.447  0.3761E-01  0.1204E-01
  -7.437  0.3837E-01  0.1243E-01
  -7.427  0.3913E-01  0.1282E-01
  -7.417  0.3989E-01  0.1322E-01
  -7.407  0.4064E-01  0.1362E-01
  -7.397  0.4140E-01  0.1404E-01
  -7.387  0.4216E-01  0.1446E-01
  -7.377  0.4291E-01  0.1489E-01
  -7.367  0.4367E-01  0.1532E-01
  -7.357  0.4442E-01  0.1577E-01
  -7.347  0.4517E-01  0.1622E-01
  -7.337  0.4591E-01  0.1668E-01
  -7.327  0.4666E-01  0.1714E-01
  -7.317  0.4740E-01  0.1762E-01
  -7.307  0.4813E-01  0.1810E-01
  -7.297  0.4887E-01  0.1859E-01
  -7.287  0.4960E-01  0.1908E-01
  -7.277  0.5033E-01  0.1959E-01
  -7.267  0.5105E-01  0.2010E-01
  -7.257  0.5178E-01  0.2062E-01
  -7.247  0.5249E-01  0.2114E-01
  -7.237  0.5321E-01  0.2167E-01
  -7.227  0.5392E-01  0.2221E-01
  -7.217  0.5464E-01  0.2276E-01
  -7.207  0.5534E-01  0.2331E-01
  -7.197  0.5605E-01  0.2387E-01
  -7.187  0.5675E-01  0.2444E-01
  -7.177  0.5745E-01  0.2501E-01
  -7.167  0.5815E-01  0.2560E-01
  -7.157  0.5885E-01  0.2618E-01
  -7.147  0.5955E-01  0.2678E-01
  -7.137  0.6025E-01  0.2738E-01
  -7.127  0.6094E-01  0.2799E-01
  -7.117  0.6164E-01  0.2861E-01
  -7.107  0.6233E-01  0.2923E-01
  -7.097  0.6303E-01  0.2986E-01
  -7.087  0.6373E-01  0.3050E-01
  -7.077  0.6443E-01  0.3114E-01
  -7.067  0.6513E-01  0.3180E-01
  -7.057  0.6583E-01  0.3245E-01
  -7.047  0.6653E-01  0.3312E-01
  -7.037  0.6724E-01  0.3379E-01
  -7.027  0.6795E-01  0.3447E-01
  -7.017  0.6866E-01  0.3516E-01
  -7.007  0.6937E-01  0.3585E-01
  -6.997  0.7009E-01  0.3655E-01
  -6.987  0.7081E-01  0.3726E-01
  -6.977  0.7154E-01  0.3798E-01
  -6.967  0.7227E-01  0.3870E-01
  -6.957  0.7301E-01  0.3943E-01
  -6.947  0.7375E-01  0.4017E-01
  -6.937  0.7449E-01  0.4091E-01
  -6.927  0.7524E-01  0.4166E-01
  -6.917  0.7600E-01  0.4242E-01
  -6.907  0.7676E-01  0.4319E-01
  -6.897  0.7752E-01  0.4397E-01
  -6.887  0.7829E-01  0.4475E-01
  -6.877  0.7907E-01  0.4554E-01
  -6.867  0.7985E-01  0.4634E-01
  -6.857  0.8063E-01  0.4714E-01
  -6.847  0.8142E-01  0.4796E-01
  -6.837  0.8221E-01  0.4878E-01
  -6.827  0.8301E-01  0.4961E-01
  -6.817  0.8381E-01  0.5045E-01
  -6.807  0.8462E-01  0.5129E-01
  -6.797  0.8542E-01  0.5215E-01
  -6.787  0.8623E-01  0.5301E-01
  -6.777  0.8705E-01  0.5388E-01
  -6.767  0.8786E-01  0.5476E-01
  -6.757  0.8868E-01  0.5565E-01
  -6.747  0.8949E-01  0.5654E-01
  -6.737  0.9031E-01  0.5744E-01
  -6.727  0.9112E-01  0.5836E-01
  -6.717  0.9194E-01  0.5928E-01
  -6.707  0.9275E-01  0.6020E-01
  -6.697  0.9357E-01  0.6114E-01
  -6.687  0.9437E-01  0.6208E-01
  -6.677  0.9518E-01  0.6303E-01
  -6.667  0.9598E-01  0.6399E-01
  -6.657  0.9678E-01  0.6496E-01
  -6.647  0.9757E-01  0.6594E-01
  -6.637  0.9836E-01  0.6692E-01
  -6.627  0.9913E-01  0.6791E-01
  -6.617  0.9990E-01  0.6891E-01
  -6.607  0.1007E+00  0.6992E-01
  -6.597  0.1014E+00  0.7093E-01
  -6.587  0.1022E+00  0.7195E-01
  -6.577  0.1029E+00  0.7298E-01
  -6.567  0.1036E+00  0.7402E-01
  -6.557  0.1043E+00  0.7506E-01
  -6.547  0.1050E+00  0.7611E-01
  -6.537  0.1057E+00  0.7717E-01
  -6.527  0.1064E+00  0.7823E-01
  -6.517  0.1071E+00  0.7930E-01
  -6.507  0.1077E+00  0.8038E-01
  -6.497  0.1083E+00  0.8147E-01
  -6.487  0.1090E+00  0.8256E-01
  -6.477  0.1096E+00  0.8365E-01
  -6.467  0.1102E+00  0.8475E-01
  -6.457  0.1107E+00  0.8586E-01
  -6.447  0.1113E+00  0.8697E-01
  -6.437  0.1118E+00  0.8809E-01
  -6.427  0.1124E+00  0.8921E-01
  -6.417  0.1129E+00  0.9034E-01
  -6.407  0.1134E+00  0.9148E-01
  -6.397  0.1138E+00  0.9261E-01
  -6.387  0.1143E+00  0.9376E-01
  -6.377  0.1147E+00  0.9491E-01
  -6.367  0.1152E+00  0.9606E-01
  -6.357  0.1156E+00  0.9721E-01
  -6.347  0.1160E+00  0.9837E-01
  -6.337  0.1164E+00  0.9954E-01
  -6.327  0.1167E+00  0.1007E+00
  -6.317  0.1171E+00  0.1019E+00
  -6.307  0.1174E+00  0.1030E+00
  -6.297  0.1177E+00  0.1042E+00
  -6.287  0.1180E+00  0.1054E+00
  -6.277  0.1183E+00  0.1066E+00
  -6.267  0.1186E+00  0.1078E+00
  -6.257  0.1189E+00  0.1090E+00
  -6.247  0.1192E+00  0.1102E+00
  -6.237  0.1194E+00  0.1114E+00
  -6.227  0.1196E+00  0.1125E+00
  -6.217  0.1199E+00  0.1137E+00
  -6.207  0.1201E+00  0.1149E+00
  -6.197  0.1203E+00  0.1161E+00
  -6.187  0.1205E+00  0.1174E+00
  -6.177  0.1207E+00  0.1186E+00
  -6.167  0.1208E+00  0.1198E+00
  -6.157  0.1210E+00  0.1210E+00
  -6.147  0.1212E+00  0.1222E+00
  -6.137  0.1213E+00  0.1234E+00
  -6.127  0.1215E+00  0.1246E+00
  -6.117  0.1216E+00  0.1258E+00
  -6.107  0.1218E+00  0.1271E+00
  -6.097  0.1219E+00  0.1283E+00
  -6.087  0.1221E+00  0.1295E+00
  -6.077  0.1222E+00  0.1307E+00
  -6.067  0.1223E+00  0.1319E+00
  -6.057  0.1224E+00  0.1332E+00
  -6.047  0.1226E+00  0.1344E+00
  -6.037  0.1227E+00  0.1356E+00
  -6.027  0.1228E+00  0.1368E+00
  -6.017  0.1229E+00  0.1381E+00
  -6.007  0.1230E+00  0.1393E+00
  -5.997  0.1232E+00  0.1405E+00
  -5.987  0.1233E+00  0.1418E+00
  -5.977  0.1234E+00  0.1430E+00
  -5.967  0.1235E+00  0.1442E+00
  -5.957  0.1236E+00  0.1455E+00
  -5.947  0.1238E+00  0.1467E+00
  -5.937  0.1239E+00  0.1479E+00
  -5.927  0.1240E+00  0.1492E+00
  -5.917  0.1241E+00  0.1504E+00
  -5.907  0.1243E+00  0.1517E+00
  -5.897  0.1244E+00  0.1529E+00
  -5.887  0.1245E+00  0.1542E+00
  -5.877  0.1247E+00  0.1554E+00
  -5.867  0.1248E+00  0.1567E+00
  -5.857  0.1250E+00  0.1579E+00
  -5.847  0.1251E+00  0.1592E+00
  -5.837  0.1253E+00  0.1604E+00
  -5.827  0.1254E+00  0.1617E+00
  -5.817  0.1256E+00  0.1629E+00
  -5.807  0.1257E+00  0.1642E+00
  -5.797  0.1259E+00  0.1654E+00
  -5.787  0.1261E+00  0.1667E+00
  -5.777  0.1262E+00  0.1680E+00
  -5.767  0.1264E+00  0.1692E+00
  -5.757  0.1266E+00  0.1705E+00
  -5.747  0.1268E+00  0.1718E+00
  -5.737  0.1270E+00  0.1730E+00
  -5.727  0.1272E+00  0.1743E+00
  -5.717  0.1275E+00  0.1756E+00
  -5.707  0.1277E+00  0.1769E+00
  -5.697  0.1279E+00  0.1781E+00
  -5.687  0.1282E+00  0.1794E+00
  -5.677  0.1284E+00  0.1807E+00
  -5.667  0.1287E+00  0.1820E+00
  -5.657  0.1290E+00  0.1833E+00
  -5.647  0.1292E+00  0.1846E+00
  -5.637  0.1296E+00  0.1859E+00
  -5.627  0.1299E+00  0.1872E+00
  -5.617  0.1302E+00  0.1885E+00
  -5.607  0.1305E+00  0.1898E+00
  -5.597  0.1309E+00  0.1911E+00
  -5.587  0.1313E+00  0.1924E+00
  -5.577  0.1316E+00  0.1937E+00
  -5.567  0.1320E+00  0.1950E+00
  -5.557  0.1325E+00  0.1964E+00
  -5.547  0.1329E+00  0.1977E+00
  -5.537  0.1334E+00  0.1990E+00
  -5.527  0.1338E+00  0.2004E+00
  -5.517  0.1343E+00  0.2017E+00
  -5.507  0.1349E+00  0.2030E+00
  -5.497  0.1354E+00  0.2044E+00
  -5.487  0.1359E+00  0.2058E+00
  -5.477  0.1365E+00  0.2071E+00
  -5.467  0.1371E+00  0.2085E+00
  -5.457  0.1377E+00  0.2099E+00
  -5.447  0.1384E+00  0.2113E+00
  -5.437  0.1390E+00  0.2126E+00
  -5.427  0.1397E+00  0.2140E+00
  -5.417  0.1404E+00  0.2154E+00
  -5.407  0.1412E+00  0.2169E+00
  -5.397  0.1419E+00  0.2183E+00
  -5.387  0.1427E+00  0.2197E+00
  -5.377  0.1435E+00  0.2211E+00
  -5.367  0.1443E+00  0.2226E+00
  -5.357  0.1451E+00  0.2240E+00
  -5.347  0.1460E+00  0.2255E+00
  -5.337  0.1469E+00  0.2270E+00
  -5.327  0.1477E+00  0.2284E+00
  -5.317  0.1487E+00  0.2299E+00
  -5.307  0.1496E+00  0.2314E+00
  -5.297  0.1505E+00  0.2329E+00
  -5.287  0.1515E+00  0.2344E+00
  -5.277  0.1525E+00  0.2360E+00
  -5.267  0.1534E+00  0.2375E+00
  -5.257  0.1544E+00  0.2390E+00
  -5.247  0.1554E+00  0.2406E+00
  -5.237  0.1564E+00  0.2422E+00
  -5.227  0.1575E+00  0.2437E+00
  -5.217  0.1585E+00  0.2453E+00
  -5.207  0.1595E+00  0.2469E+00
  -5.197  0.1605E+00  0.2485E+00
  -5.187  0.1616E+00  0.2501E+00
  -5.177  0.1626E+00  0.2518E+00
  -5.167  0.1636E+00  0.2534E+00
  -5.157  0.1646E+00  0.2550E+00
  -5.147  0.1657E+00  0.2567E+00
  -5.137  0.1667E+00  0.2584E+00
  -5.127  0.1676E+00  0.2600E+00
  -5.117  0.1686E+00  0.2617E+00
  -5.107  0.1696E+00  0.2634E+00
  -5.097  0.1705E+00  0.2651E+00
  -5.087  0.1715E+00  0.2669E+00
  -5.077  0.1724E+00  0.2686E+00
  -5.067  0.1732E+00  0.2703E+00
  -5.057  0.1741E+00  0.2720E+00
  -5.047  0.1749E+00  0.2738E+00
  -5.037  0.1757E+00  0.2756E+00
  -5.027  0.1765E+00  0.2773E+00
  -5.017  0.1773E+00  0.2791E+00
  -5.007  0.1780E+00  0.2809E+00
  -4.997  0.1787E+00  0.2827E+00
  -4.987  0.1793E+00  0.2845E+00
  -4.977  0.1799E+00  0.2863E+00
  -4.967  0.1805E+00  0.2881E+00
  -4.957  0.1811E+00  0.2899E+00
  -4.947  0.1816E+00  0.2917E+00
  -4.937  0.1820E+00  0.2935E+00
  -4.927  0.1824E+00  0.2953E+00
  -4.917  0.1828E+00  0.2972E+00
  -4.907  0.1832E+00  0.2990E+00
  -4.897  0.1835E+00  0.3008E+00
  -4.887  0.1838E+00  0.3027E+00
  -4.877  0.1840E+00  0.3045E+00
  -4.867  0.1842E+00  0.3063E+00
  -4.857  0.1843E+00  0.3082E+00
  -4.847  0.1844E+00  0.3100E+00
  -4.837  0.1845E+00  0.3119E+00
  -4.827  0.1845E+00  0.3137E+00
  -4.817  0.1845E+00  0.3156E+00
  -4.807  0.1845E+00  0.3174E+00
  -4.797  0.1844E+00  0.3193E+00
  -4.787  0.1843E+00  0.3211E+00
  -4.777  0.1842E+00  0.3229E+00
  -4.767  0.1840E+00  0.3248E+00
  -4.757  0.1838E+00  0.3266E+00
  -4.747  0.1836E+00  0.3285E+00
  -4.737  0.1833E+00  0.3303E+00
  -4.727  0.1831E+00  0.3321E+00
  -4.717  0.1828E+00  0.3339E+00
  -4.707  0.1825E+00  0.3358E+00
  -4.697  0.1821E+00  0.3376E+00
  -4.687  0.1818E+00  0.3394E+00
  -4.677  0.1814E+00  0.3412E+00
  -4.667  0.1811E+00  0.3430E+00
  -4.657  0.1807E+00  0.3448E+00
  -4.647  0.1803E+00  0.3466E+00
  -4.637  0.1799E+00  0.3484E+00
  -4.627  0.1795E+00  0.3502E+00
  -4.617  0.1791E+00  0.3520E+00
  -4.607  0.1787E+00  0.3538E+00
  -4.597  0.1784E+00  0.3556E+00
  -4.587  0.1780E+00  0.3574E+00
  -4.577  0.1776E+00  0.3592E+00
  -4.567  0.1772E+00  0.3609E+00
  -4.557  0.1769E+00  0.3627E+00
  -4.547  0.1765E+00  0.3645E+00
  -4.537  0.1762E+00  0.3662E+00
  -4.527  0.1759E+00  0.3680E+00
  -4.517  0.1756E+00  0.3697E+00
  -4.507  0.1753E+00  0.3715E+00
  -4.497  0.1751E+00  0.3732E+00
  -4.487  0.1749E+00  0.3750E+00
  -4.477  0.1746E+00  0.3767E+00
  -4.467  0.1745E+00  0.3785E+00
  -4.457  0.1743E+00  0.3802E+00
  -4.447  0.1741E+00  0.3820E+00
  -4.437  0.1740E+00  0.3837E+00
  -4.427  0.1739E+00  0.3854E+00
  -4.417  0.1739E+00  0.3872E+00
  -4.407  0.1738E+00  0.3889E+00
  -4.397  0.1738E+00  0.3907E+00
  -4.387  0.1739E+00  0.3924E+00
  -4.377  0.1739E+00  0.3941E+00
  -4.367  0.1740E+00  0.3959E+00
  -4.357  0.1741E+00  0.3976E+00
  -4.347  0.1742E+00  0.3994E+00
  -4.337  0.1743E+00  0.4011E+00
  -4.327  0.1745E+00  0.4029E+00
  -4.317  0.1747E+00  0.4046E+00
  -4.307  0.1749E+00  0.4063E+00
  -4.297  0.1751E+00  0.4081E+00
  -4.287  0.1754E+00  0.4099E+00
  -4.277  0.1756E+00  0.4116E+00
  -4.267  0.1759E+00  0.4134E+00
  -4.257  0.1762E+00  0.4151E+00
  -4.247  0.1765E+00  0.4169E+00
  -4.237  0.1769E+00  0.4187E+00
  -4.227  0.1772E+00  0.4204E+00
  -4.217  0.1776E+00  0.4222E+00
  -4.207  0.1780E+00  0.4240E+00
  -4.197  0.1783E+00  0.4258E+00
  -4.187  0.1787E+00  0.4276E+00
  -4.177  0.1791E+00  0.4294E+00
  -4.167  0.1795E+00  0.4311E+00
  -4.157  0.1799E+00  0.4329E+00
  -4.147  0.1803E+00  0.4347E+00
  -4.137  0.1807E+00  0.4366E+00
  -4.127  0.1811E+00  0.4384E+00
  -4.117  0.1815E+00  0.4402E+00
  -4.107  0.1818E+00  0.4420E+00
  -4.097  0.1822E+00  0.4438E+00
  -4.087  0.1826E+00  0.4456E+00
  -4.077  0.1830E+00  0.4475E+00
  -4.067  0.1833E+00  0.4493E+00
  -4.057  0.1837E+00  0.4511E+00
  -4.047  0.1840E+00  0.4530E+00
  -4.037  0.1843E+00  0.4548E+00
  -4.027  0.1846E+00  0.4567E+00
  -4.017  0.1849E+00  0.4585E+00
  -4.007  0.1852E+00  0.4604E+00
  -3.997  0.1854E+00  0.4622E+00
  -3.987  0.1857E+00  0.4641E+00
  -3.977  0.1859E+00  0.4659E+00
  -3.967  0.1861E+00  0.4678E+00
  -3.957  0.1863E+00  0.4697E+00
  -3.947  0.1865E+00  0.4715E+00
  -3.937  0.1867E+00  0.4734E+00
  -3.927  0.1868E+00  0.4753E+00
  -3.917  0.1869E+00  0.4771E+00
  -3.907  0.1871E+00  0.4790E+00
  -3.897  0.1871E+00  0.4809E+00
  -3.887  0.1872E+00  0.4828E+00
  -3.877  0.1873E+00  0.4846E+00
  -3.867  0.1873E+00  0.4865E+00
  -3.857  0.1873E+00  0.4884E+00
  -3.847  0.1874E+00  0.4902E+00
  -3.837  0.1874E+00  0.4921E+00
  -3.827  0.1873E+00  0.4940E+00
  -3.817  0.1873E+00  0.4959E+00
  -3.807  0.1873E+00  0.4977E+00
  -3.797  0.1872E+00  0.4996E+00
  -3.787  0.1871E+00  0.5015E+00
  -3.777  0.1871E+00  0.5034E+00
  -3.767  0.1870E+00  0.5052E+00
  -3.757  0.1869E+00  0.5071E+00
  -3.747  0.1868E+00  0.5090E+00
  -3.737  0.1867E+00  0.5108E+00
  -3.727  0.1866E+00  0.5127E+00
  -3.717  0.1865E+00  0.5146E+00
  -3.707  0.1864E+00  0.5164E+00
  -3.697  0.1862E+00  0.5183E+00
  -3.687  0.1861E+00  0.5201E+00
  -3.677  0.1860E+00  0.5220E+00
  -3.667  0.1859E+00  0.5239E+00
  -3.657  0.1858E+00  0.5257E+00
  -3.647  0.1857E+00  0.5276E+00
  -3.637  0.1856E+00  0.5294E+00
  -3.627  0.1855E+00  0.5313E+00
  -3.617  0.1855E+00  0.5331E+00
  -3.607  0.1854E+00  0.5350E+00
  -3.597  0.1853E+00  0.5369E+00
  -3.587  0.1853E+00  0.5387E+00
  -3.577  0.1853E+00  0.5406E+00
  -3.567  0.1853E+00  0.5424E+00
  -3.557  0.1853E+00  0.5443E+00
  -3.547  0.1853E+00  0.5461E+00
  -3.537  0.1854E+00  0.5480E+00
  -3.527  0.1854E+00  0.5498E+00
  -3.517  0.1855E+00  0.5517E+00
  -3.507  0.1857E+00  0.5535E+00
  -3.497  0.1858E+00  0.5554E+00
  -3.487  0.1860E+00  0.5573E+00
  -3.477  0.1862E+00  0.5591E+00
  -3.467  0.1864E+00  0.5610E+00
  -3.457  0.1867E+00  0.5629E+00
  -3.447  0.1870E+00  0.5647E+00
  -3.437  0.1873E+00  0.5666E+00
  -3.427  0.1876E+00  0.5685E+00
  -3.417  0.1880E+00  0.5703E+00
  -3.407  0.1884E+00  0.5722E+00
  -3.397  0.1889E+00  0.5741E+00
  -3.387  0.1894E+00  0.5760E+00
  -3.377  0.1899E+00  0.5779E+00
  -3.367  0.1905E+00  0.5798E+00
  -3.357  0.1911E+00  0.5817E+00
  -3.347  0.1917E+00  0.5836E+00
  -3.337  0.1924E+00  0.5856E+00
  -3.327  0.1932E+00  0.5875E+00
  -3.317  0.1939E+00  0.5894E+00
  -3.307  0.1947E+00  0.5914E+00
  -3.297  0.1956E+00  0.5933E+00
  -3.287  0.1965E+00  0.5953E+00
  -3.277  0.1974E+00  0.5973E+00
  -3.267  0.1984E+00  0.5993E+00
  -3.257  0.1994E+00  0.6013E+00
  -3.247  0.2004E+00  0.6033E+00
  -3.237  0.2015E+00  0.6053E+00
  -3.227  0.2027E+00  0.6073E+00
  -3.217  0.2039E+00  0.6093E+00
  -3.207  0.2051E+00  0.6114E+00
  -3.197  0.2063E+00  0.6135E+00
  -3.187  0.2076E+00  0.6155E+00
  -3.177  0.2090E+00  0.6176E+00
  -3.167  0.2103E+00  0.6197E+00
  -3.157  0.2117E+00  0.6218E+00
  -3.147  0.2132E+00  0.6240E+00
  -3.137  0.2147E+00  0.6261E+00
  -3.127  0.2162E+00  0.6283E+00
  -3.117  0.2177E+00  0.6305E+00
  -3.107  0.2193E+00  0.6327E+00
  -3.097  0.2209E+00  0.6349E+00
  -3.087  0.2225E+00  0.6371E+00
  -3.077  0.2241E+00  0.6393E+00
  -3.067  0.2258E+00  0.6416E+00
  -3.057  0.2275E+00  0.6439E+00
  -3.047  0.2292E+00  0.6462E+00
  -3.037  0.2309E+00  0.6485E+00
  -3.027  0.2326E+00  0.6508E+00
  -3.017  0.2344E+00  0.6531E+00
  -3.007  0.2361E+00  0.6555E+00
  -2.997  0.2379E+00  0.6579E+00
  -2.987  0.2396E+00  0.6603E+00
  -2.977  0.2414E+00  0.6627E+00
  -2.967  0.2431E+00  0.6651E+00
  -2.957  0.2449E+00  0.6676E+00
  -2.947  0.2466E+00  0.6700E+00
  -2.937  0.2483E+00  0.6725E+00
  -2.927  0.2500E+00  0.6750E+00
  -2.917  0.2517E+00  0.6775E+00
  -2.907  0.2534E+00  0.6801E+00
  -2.897  0.2550E+00  0.6826E+00
  -2.887  0.2566E+00  0.6852E+00
  -2.877  0.2582E+00  0.6878E+00
  -2.867  0.2597E+00  0.6904E+00
  -2.857  0.2612E+00  0.6930E+00
  -2.847  0.2627E+00  0.6956E+00
  -2.837  0.2641E+00  0.6982E+00
  -2.827  0.2655E+00  0.7009E+00
  -2.817  0.2668E+00  0.7036E+00
  -2.807  0.2681E+00  0.7062E+00
  -2.797  0.2693E+00  0.7089E+00
  -2.787  0.2704E+00  0.7116E+00
  -2.777  0.2715E+00  0.7144E+00
  -2.767  0.2725E+00  0.7171E+00
  -2.757  0.2735E+00  0.7198E+00
  -2.747  0.2744E+00  0.7226E+00
  -2.737  0.2752E+00  0.7253E+00
  -2.727  0.2760E+00  0.7281E+00
  -2.717  0.2766E+00  0.7308E+00
  -2.707  0.2772E+00  0.7336E+00
  -2.697  0.2777E+00  0.7364E+00
  -2.687  0.2782E+00  0.7392E+00
  -2.677  0.2786E+00  0.7420E+00
  -2.667  0.2788E+00  0.7447E+00
  -2.657  0.2790E+00  0.7475E+00
  -2.647  0.2792E+00  0.7503E+00
  -2.637  0.2792E+00  0.7531E+00
  -2.627  0.2792E+00  0.7559E+00
  -2.617  0.2790E+00  0.7587E+00
  -2.607  0.2788E+00  0.7615E+00
  -2.597  0.2786E+00  0.7643E+00
  -2.587  0.2782E+00  0.7671E+00
  -2.577  0.2778E+00  0.7698E+00
  -2.567  0.2772E+00  0.7726E+00
  -2.557  0.2766E+00  0.7754E+00
  -2.547  0.2760E+00  0.7781E+00
  -2.537  0.2752E+00  0.7809E+00
  -2.527  0.2744E+00  0.7836E+00
  -2.517  0.2736E+00  0.7864E+00
  -2.507  0.2726E+00  0.7891E+00
  -2.497  0.2716E+00  0.7918E+00
  -2.487  0.2706E+00  0.7945E+00
  -2.477  0.2694E+00  0.7972E+00
  -2.467  0.2683E+00  0.7999E+00
  -2.457  0.2670E+00  0.8026E+00
  -2.447  0.2658E+00  0.8052E+00
  -2.437  0.2644E+00  0.8079E+00
  -2.427  0.2631E+00  0.8105E+00
  -2.417  0.2617E+00  0.8131E+00
  -2.407  0.2603E+00  0.8157E+00
  -2.397  0.2588E+00  0.8183E+00
  -2.387  0.2573E+00  0.8209E+00
  -2.377  0.2558E+00  0.8234E+00
  -2.367  0.2543E+00  0.8260E+00
  -2.357  0.2527E+00  0.8285E+00
  -2.347  0.2512E+00  0.8310E+00
  -2.337  0.2496E+00  0.8335E+00
  -2.327  0.2481E+00  0.8360E+00
  -2.317  0.2465E+00  0.8385E+00
  -2.307  0.2449E+00  0.8409E+00
  -2.297  0.2434E+00  0.8433E+00
  -2.287  0.2418E+00  0.8458E+00
  -2.277  0.2403E+00  0.8482E+00
  -2.267  0.2388E+00  0.8505E+00
  -2.257  0.2373E+00  0.8529E+00
  -2.247  0.2358E+00  0.8553E+00
  -2.237  0.2344E+00  0.8576E+00
  -2.227  0.2330E+00  0.8600E+00
  -2.217  0.2316E+00  0.8623E+00
  -2.207  0.2302E+00  0.8646E+00
  -2.197  0.2289E+00  0.8669E+00
  -2.187  0.2276E+00  0.8691E+00
  -2.177  0.2264E+00  0.8714E+00
  -2.167  0.2252E+00  0.8737E+00
  -2.157  0.2240E+00  0.8759E+00
  -2.147  0.2229E+00  0.8781E+00
  -2.137  0.2218E+00  0.8803E+00
  -2.127  0.2208E+00  0.8825E+00
  -2.117  0.2198E+00  0.8847E+00
  -2.107  0.2189E+00  0.8869E+00
  -2.097  0.2180E+00  0.8891E+00
  -2.087  0.2171E+00  0.8913E+00
  -2.077  0.2163E+00  0.8934E+00
  -2.067  0.2156E+00  0.8956E+00
  -2.057  0.2149E+00  0.8978E+00
  -2.047  0.2142E+00  0.8999E+00
  -2.037  0.2136E+00  0.9020E+00
  -2.027  0.2130E+00  0.9042E+00
  -2.017  0.2125E+00  0.9063E+00
  -2.007  0.2120E+00  0.9084E+00
  -1.997  0.2115E+00  0.9105E+00
  -1.987  0.2111E+00  0.9126E+00
  -1.977  0.2108E+00  0.9147E+00
  -1.967  0.2104E+00  0.9168E+00
  -1.957  0.2101E+00  0.9189E+00
  -1.947  0.2099E+00  0.9210E+00
  -1.937  0.2097E+00  0.9231E+00
  -1.927  0.2095E+00  0.9252E+00
  -1.917  0.2093E+00  0.9273E+00
  -1.907  0.2092E+00  0.9294E+00
  -1.897  0.2091E+00  0.9315E+00
  -1.887  0.2090E+00  0.9336E+00
  -1.877  0.2089E+00  0.9357E+00
  -1.867  0.2089E+00  0.9378E+00
  -1.857  0.2089E+00  0.9399E+00
  -1.847  0.2089E+00  0.9420E+00
  -1.837  0.2089E+00  0.9440E+00
  -1.827  0.2089E+00  0.9461E+00
  -1.817  0.2090E+00  0.9482E+00
  -1.807  0.2091E+00  0.9503E+00
  -1.797  0.2092E+00  0.9524E+00
  -1.787  0.2093E+00  0.9545E+00
  -1.777  0.2094E+00  0.9566E+00
  -1.767  0.2095E+00  0.9587E+00
  -1.757  0.2096E+00  0.9608E+00
  -1.747  0.2098E+00  0.9629E+00
  -1.737  0.2099E+00  0.9650E+00
  -1.727  0.2101E+00  0.9671E+00
  -1.717  0.2103E+00  0.9692E+00
  -1.707  0.2105E+00  0.9713E+00
  -1.697  0.2107E+00  0.9734E+00
  -1.687  0.2109E+00  0.9755E+00
  -1.677  0.2111E+00  0.9776E+00
  -1.667  0.2113E+00  0.9797E+00
  -1.657  0.2115E+00  0.9818E+00
  -1.647  0.2117E+00  0.9840E+00
  -1.637  0.2120E+00  0.9861E+00
  -1.627  0.2122E+00  0.9882E+00
  -1.617  0.2125E+00  0.9903E+00
  -1.607  0.2128E+00  0.9925E+00
  -1.597  0.2131E+00  0.9946E+00
  -1.587  0.2134E+00  0.9967E+00
  -1.577  0.2137E+00  0.9989E+00
  -1.567  0.2140E+00  0.1001E+01
  -1.557  0.2144E+00  0.1003E+01
  -1.547  0.2147E+00  0.1005E+01
  -1.537  0.2151E+00  0.1007E+01
  -1.527  0.2155E+00  0.1010E+01
  -1.517  0.2159E+00  0.1012E+01
  -1.507  0.2164E+00  0.1014E+01
  -1.497  0.2168E+00  0.1016E+01
  -1.487  0.2173E+00  0.1018E+01
  -1.477  0.2178E+00  0.1020E+01
  -1.467  0.2183E+00  0.1023E+01
  -1.457  0.2188E+00  0.1025E+01
  -1.447  0.2194E+00  0.1027E+01
  -1.437  0.2200E+00  0.1029E+01
  -1.427  0.2206E+00  0.1031E+01
  -1.417  0.2213E+00  0.1034E+01
  -1.407  0.2219E+00  0.1036E+01
  -1.397  0.2226E+00  0.1038E+01
  -1.387  0.2234E+00  0.1040E+01
  -1.377  0.2241E+00  0.1043E+01
  -1.367  0.2249E+00  0.1045E+01
  -1.357  0.2257E+00  0.1047E+01
  -1.347  0.2265E+00  0.1049E+01
  -1.337  0.2274E+00  0.1052E+01
  -1.327  0.2283E+00  0.1054E+01
  -1.317  0.2292E+00  0.1056E+01
  -1.307  0.2302E+00  0.1058E+01
  -1.297  0.2311E+00  0.1061E+01
  -1.287  0.2321E+00  0.1063E+01
  -1.277  0.2332E+00  0.1065E+01
  -1.267  0.2342E+00  0.1068E+01
  -1.257  0.2353E+00  0.1070E+01
  -1.247  0.2364E+00  0.1072E+01
  -1.237  0.2375E+00  0.1075E+01
  -1.227  0.2387E+00  0.1077E+01
  -1.217  0.2399E+00  0.1080E+01
  -1.207  0.2411E+00  0.1082E+01
  -1.197  0.2423E+00  0.1084E+01
  -1.187  0.2436E+00  0.1087E+01
  -1.177  0.2449E+00  0.1089E+01
  -1.167  0.2462E+00  0.1092E+01
  -1.157  0.2475E+00  0.1094E+01
  -1.147  0.2488E+00  0.1097E+01
  -1.137  0.2502E+00  0.1099E+01
  -1.127  0.2516E+00  0.1102E+01
  -1.117  0.2530E+00  0.1104E+01
  -1.107  0.2544E+00  0.1107E+01
  -1.097  0.2558E+00  0.1109E+01
  -1.087  0.2573E+00  0.1112E+01
  -1.077  0.2588E+00  0.1115E+01
  -1.067  0.2602E+00  0.1117E+01
  -1.057  0.2617E+00  0.1120E+01
  -1.047  0.2633E+00  0.1122E+01
  -1.037  0.2648E+00  0.1125E+01
  -1.027  0.2663E+00  0.1128E+01
  -1.017  0.2679E+00  0.1130E+01
  -1.007  0.2695E+00  0.1133E+01
  -0.997  0.2711E+00  0.1136E+01
  -0.987  0.2726E+00  0.1139E+01
  -0.977  0.2743E+00  0.1141E+01
  -0.967  0.2759E+00  0.1144E+01
  -0.957  0.2775E+00  0.1147E+01
  -0.947  0.2792E+00  0.1150E+01
  -0.937  0.2808E+00  0.1152E+01
  -0.927  0.2825E+00  0.1155E+01
  -0.917  0.2842E+00  0.1158E+01
  -0.907  0.2858E+00  0.1161E+01
  -0.897  0.2875E+00  0.1164E+01
  -0.887  0.2892E+00  0.1167E+01
  -0.877  0.2910E+00  0.1170E+01
  -0.867  0.2927E+00  0.1173E+01
  -0.857  0.2944E+00  0.1176E+01
  -0.847  0.2962E+00  0.1178E+01
  -0.837  0.2979E+00  0.1181E+01
  -0.827  0.2997E+00  0.1184E+01
  -0.817  0.3015E+00  0.1187E+01
  -0.807  0.3033E+00  0.1191E+01
  -0.797  0.3050E+00  0.1194E+01
  -0.787  0.3068E+00  0.1197E+01
  -0.777  0.3086E+00  0.1200E+01
  -0.767  0.3104E+00  0.1203E+01
  -0.757  0.3122E+00  0.1206E+01
  -0.747  0.3140E+00  0.1209E+01
  -0.737  0.3159E+00  0.1212E+01
  -0.727  0.3177E+00  0.1215E+01
  -0.717  0.3195E+00  0.1219E+01
  -0.707  0.3213E+00  0.1222E+01
  -0.697  0.3231E+00  0.1225E+01
  -0.687  0.3249E+00  0.1228E+01
  -0.677  0.3267E+00  0.1232E+01
  -0.667  0.3285E+00  0.1235E+01
  -0.657  0.3303E+00  0.1238E+01
  -0.647  0.3321E+00  0.1241E+01
  -0.637  0.3339E+00  0.1245E+01
  -0.627  0.3356E+00  0.1248E+01
  -0.617  0.3373E+00  0.1252E+01
  -0.607  0.3391E+00  0.1255E+01
  -0.597  0.3408E+00  0.1258E+01
  -0.587  0.3424E+00  0.1262E+01
  -0.577  0.3441E+00  0.1265E+01
  -0.567  0.3457E+00  0.1269E+01
  -0.557  0.3473E+00  0.1272E+01
  -0.547  0.3489E+00  0.1276E+01
  -0.537  0.3504E+00  0.1279E+01
  -0.527  0.3519E+00  0.1283E+01
  -0.517  0.3534E+00  0.1286E+01
  -0.507  0.3548E+00  0.1290E+01
  -0.497  0.3561E+00  0.1293E+01
  -0.487  0.3575E+00  0.1297E+01
  -0.477  0.3587E+00  0.1300E+01
  -0.467  0.3599E+00  0.1304E+01
  -0.457  0.3611E+00  0.1308E+01
  -0.447  0.3622E+00  0.1311E+01
  -0.437  0.3632E+00  0.1315E+01
  -0.427  0.3642E+00  0.1319E+01
  -0.417  0.3651E+00  0.1322E+01
  -0.407  0.3660E+00  0.1326E+01
  -0.397  0.3667E+00  0.1330E+01
  -0.387  0.3674E+00  0.1333E+01
  -0.377  0.3681E+00  0.1337E+01
  -0.367  0.3686E+00  0.1341E+01
  -0.357  0.3691E+00  0.1344E+01
  -0.347  0.3694E+00  0.1348E+01
  -0.337  0.3697E+00  0.1352E+01
  -0.327  0.3699E+00  0.1355E+01
  -0.317  0.3701E+00  0.1359E+01
  -0.307  0.3701E+00  0.1363E+01
  -0.297  0.3700E+00  0.1366E+01
  -0.287  0.3699E+00  0.1370E+01
  -0.277  0.3696E+00  0.1374E+01
  -0.267  0.3693E+00  0.1378E+01
  -0.257  0.3689E+00  0.1381E+01
  -0.247  0.3683E+00  0.1385E+01
  -0.237  0.3677E+00  0.1389E+01
  -0.227  0.3670E+00  0.1392E+01
  -0.217  0.3662E+00  0.1396E+01
  -0.207  0.3652E+00  0.1400E+01
  -0.197  0.3642E+00  0.1403E+01
  -0.187  0.3631E+00  0.1407E+01
  -0.177  0.3620E+00  0.1410E+01
  -0.167  0.3607E+00  0.1414E+01
  -0.157  0.3593E+00  0.1418E+01
  -0.147  0.3578E+00  0.1421E+01
  -0.137  0.3563E+00  0.1425E+01
  -0.127  0.3546E+00  0.1428E+01
  -0.117  0.3529E+00  0.1432E+01
  -0.107  0.3511E+00  0.1435E+01
  -0.097  0.3492E+00  0.1439E+01
  -0.087  0.3473E+00  0.1442E+01
  -0.077  0.3452E+00  0.1446E+01
  -0.067  0.3431E+00  0.1449E+01
  -0.057  0.3410E+00  0.1453E+01
  -0.047  0.3387E+00  0.1456E+01
  -0.037  0.3364E+00  0.1459E+01
  -0.027  0.3341E+00  0.1463E+01
  -0.017  0.3317E+00  0.1466E+01
  -0.007  0.3292E+00  0.1469E+01
   0.003  0.3267E+00  0.1473E+01
   0.013  0.3242E+00  0.1476E+01
   0.023  0.3216E+00  0.1479E+01
   0.033  0.3190E+00  0.1482E+01
   0.043  0.3163E+00  0.1485E+01
   0.053  0.3137E+00  0.1489E+01
   0.063  0.3110E+00  0.1492E+01
   0.073  0.3083E+00  0.1495E+01
   0.083  0.3056E+00  0.1498E+01
   0.093  0.3029E+00  0.1501E+01
   0.103  0.3002E+00  0.1504E+01
   0.113  0.2975E+00  0.1507E+01
   0.123  0.2948E+00  0.1510E+01
   0.133  0.2921E+00  0.1513E+01
   0.143  0.2894E+00  0.1516E+01
   0.153  0.2867E+00  0.1518E+01
   0.163  0.2841E+00  0.1521E+01
   0.173  0.2815E+00  0.1524E+01
   0.183  0.2790E+00  0.1527E+01
   0.193  0.2764E+00  0.1530E+01
   0.203  0.2740E+00  0.1532E+01
   0.213  0.2715E+00  0.1535E+01
   0.223  0.2691E+00  0.1538E+01
   0.233  0.2668E+00  0.1540E+01
   0.243  0.2645E+00  0.1543E+01
   0.253  0.2623E+00  0.1546E+01
   0.263  0.2602E+00  0.1548E+01
   0.273  0.2581E+00  0.1551E+01
   0.283  0.2561E+00  0.1554E+01
   0.293  0.2541E+00  0.1556E+01
   0.303  0.2522E+00  0.1559E+01
   0.313  0.2504E+00  0.1561E+01
   0.323  0.2487E+00  0.1564E+01
   0.333  0.2471E+00  0.1566E+01
   0.343  0.2455E+00  0.1568E+01
   0.353  0.2440E+00  0.1571E+01
   0.363  0.2426E+00  0.1573E+01
   0.373  0.2413E+00  0.1576E+01
   0.383  0.2400E+00  0.1578E+01
   0.393  0.2389E+00  0.1581E+01
   0.403  0.2378E+00  0.1583E+01
   0.413  0.2368E+00  0.1585E+01
   0.423  0.2359E+00  0.1588E+01
   0.433  0.2351E+00  0.1590E+01
   0.443  0.2343E+00  0.1592E+01
   0.453  0.2336E+00  0.1595E+01
   0.463  0.2330E+00  0.1597E+01
   0.473  0.2325E+00  0.1599E+01
   0.483  0.2321E+00  0.1602E+01
   0.493  0.2317E+00  0.1604E+01
   0.503  0.2314E+00  0.1606E+01
   0.513  0.2311E+00  0.1609E+01
   0.523  0.2309E+00  0.1611E+01
   0.533  0.2308E+00  0.1613E+01
   0.543  0.2308E+00  0.1616E+01
   0.553  0.2308E+00  0.1618E+01
   0.563  0.2308E+00  0.1620E+01
   0.573  0.2309E+00  0.1622E+01
   0.583  0.2310E+00  0.1625E+01
   0.593  0.2312E+00  0.1627E+01
   0.603  0.2314E+00  0.1629E+01
   0.613  0.2317E+00  0.1632E+01
   0.623  0.2320E+00  0.1634E+01
   0.633  0.2323E+00  0.1636E+01
   0.643  0.2327E+00  0.1639E+01
   0.653  0.2330E+00  0.1641E+01
   0.663  0.2334E+00  0.1643E+01
   0.673  0.2338E+00  0.1646E+01
   0.683  0.2343E+00  0.1648E+01
   0.693  0.2347E+00  0.1650E+01
   0.703  0.2351E+00  0.1653E+01
   0.713  0.2356E+00  0.1655E+01
   0.723  0.2360E+00  0.1657E+01
   0.733  0.2364E+00  0.1660E+01
   0.743  0.2369E+00  0.1662E+01
   0.753  0.2373E+00  0.1665E+01
   0.763  0.2377E+00  0.1667E+01
   0.773  0.2381E+00  0.1669E+01
   0.783  0.2385E+00  0.1672E+01
   0.793  0.2389E+00  0.1674E+01
   0.803  0.2393E+00  0.1676E+01
   0.813  0.2396E+00  0.1679E+01
   0.823  0.2399E+00  0.1681E+01
   0.833  0.2403E+00  0.1684E+01
   0.843  0.2405E+00  0.1686E+01
   0.853  0.2408E+00  0.1688E+01
   0.863  0.2411E+00  0.1691E+01
   0.873  0.2413E+00  0.1693E+01
   0.883  0.2415E+00  0.1696E+01
   0.893  0.2417E+00  0.1698E+01
   0.903  0.2418E+00  0.1701E+01
   0.913  0.2420E+00  0.1703E+01
   0.923  0.2421E+00  0.1705E+01
   0.933  0.2422E+00  0.1708E+01
   0.943  0.2423E+00  0.1710E+01
   0.953  0.2424E+00  0.1713E+01
   0.963  0.2425E+00  0.1715E+01
   0.973  0.2425E+00  0.1718E+01
   0.983  0.2426E+00  0.1720E+01
   0.993  0.2426E+00  0.1722E+01
   1.003  0.2426E+00  0.1725E+01
   1.013  0.2427E+00  0.1727E+01
   1.023  0.2427E+00  0.1730E+01
   1.033  0.2427E+00  0.1732E+01
   1.043  0.2428E+00  0.1735E+01
   1.053  0.2428E+00  0.1737E+01
   1.063  0.2429E+00  0.1739E+01
   1.073  0.2429E+00  0.1742E+01
   1.083  0.2430E+00  0.1744E+01
   1.093  0.2431E+00  0.1747E+01
   1.103  0.2432E+00  0.1749E+01
   1.113  0.2434E+00  0.1752E+01
   1.123  0.2435E+00  0.1754E+01
   1.133  0.2437E+00  0.1756E+01
   1.143  0.2440E+00  0.1759E+01
   1.153  0.2443E+00  0.1761E+01
   1.163  0.2446E+00  0.1764E+01
   1.173  0.2449E+00  0.1766E+01
   1.183  0.2453E+00  0.1769E+01
   1.193  0.2457E+00  0.1771E+01
   1.203  0.2462E+00  0.1774E+01
   1.213  0.2467E+00  0.1776E+01
   1.223  0.2473E+00  0.1778E+01
   1.233  0.2479E+00  0.1781E+01
   1.243  0.2486E+00  0.1783E+01
   1.253  0.2493E+00  0.1786E+01
   1.263  0.2501E+00  0.1788E+01
   1.273  0.2510E+00  0.1791E+01
   1.283  0.2519E+00  0.1793E+01
   1.293  0.2528E+00  0.1796E+01
   1.303  0.2539E+00  0.1799E+01
   1.313  0.2549E+00  0.1801E+01
   1.323  0.2561E+00  0.1804E+01
   1.333  0.2573E+00  0.1806E+01
   1.343  0.2585E+00  0.1809E+01
   1.353  0.2598E+00  0.1811E+01
   1.363  0.2612E+00  0.1814E+01
   1.373  0.2626E+00  0.1817E+01
   1.383  0.2641E+00  0.1819E+01
   1.393  0.2656E+00  0.1822E+01
   1.403  0.2672E+00  0.1825E+01
   1.413  0.2688E+00  0.1827E+01
   1.423  0.2705E+00  0.1830E+01
   1.433  0.2722E+00  0.1833E+01
   1.443  0.2740E+00  0.1835E+01
   1.453  0.2758E+00  0.1838E+01
   1.463  0.2777E+00  0.1841E+01
   1.473  0.2795E+00  0.1844E+01
   1.483  0.2815E+00  0.1847E+01
   1.493  0.2834E+00  0.1849E+01
   1.503  0.2854E+00  0.1852E+01
   1.513  0.2874E+00  0.1855E+01
   1.523  0.2894E+00  0.1858E+01
   1.533  0.2914E+00  0.1861E+01
   1.543  0.2935E+00  0.1864E+01
   1.553  0.2955E+00  0.1867E+01
   1.563  0.2976E+00  0.1870E+01
   1.573  0.2997E+00  0.1873E+01
   1.583  0.3018E+00  0.1876E+01
   1.593  0.3039E+00  0.1879E+01
   1.603  0.3059E+00  0.1882E+01
   1.613  0.3080E+00  0.1885E+01
   1.623  0.3100E+00  0.1888E+01
   1.633  0.3121E+00  0.1891E+01
   1.643  0.3141E+00  0.1894E+01
   1.653  0.3161E+00  0.1898E+01
   1.663  0.3181E+00  0.1901E+01
   1.673  0.3200E+00  0.1904E+01
   1.683  0.3219E+00  0.1907E+01
   1.693  0.3238E+00  0.1910E+01
   1.703  0.3256E+00  0.1914E+01
   1.713  0.3274E+00  0.1917E+01
   1.723  0.3292E+00  0.1920E+01
   1.733  0.3309E+00  0.1924E+01
   1.743  0.3325E+00  0.1927E+01
   1.753  0.3342E+00  0.1930E+01
   1.763  0.3357E+00  0.1934E+01
   1.773  0.3372E+00  0.1937E+01
   1.783  0.3387E+00  0.1940E+01
   1.793  0.3401E+00  0.1944E+01
   1.803  0.3414E+00  0.1947E+01
   1.813  0.3427E+00  0.1951E+01
   1.823  0.3439E+00  0.1954E+01
   1.833  0.3451E+00  0.1957E+01
   1.843  0.3462E+00  0.1961E+01
   1.853  0.3472E+00  0.1964E+01
   1.863  0.3482E+00  0.1968E+01
   1.873  0.3490E+00  0.1971E+01
   1.883  0.3499E+00  0.1975E+01
   1.893  0.3506E+00  0.1978E+01
   1.903  0.3513E+00  0.1982E+01
   1.913  0.3520E+00  0.1985E+01
   1.923  0.3525E+00  0.1989E+01
   1.933  0.3530E+00  0.1992E+01
   1.943  0.3535E+00  0.1996E+01
   1.953  0.3539E+00  0.2000E+01
   1.963  0.3542E+00  0.2003E+01
   1.973  0.3544E+00  0.2007E+01
   1.983  0.3546E+00  0.2010E+01
   1.993  0.3547E+00  0.2014E+01
   2.003  0.3548E+00  0.2017E+01
   2.013  0.3548E+00  0.2021E+01
   2.023  0.3547E+00  0.2024E+01
   2.033  0.3546E+00  0.2028E+01
   2.043  0.3545E+00  0.2031E+01
   2.053  0.3543E+00  0.2035E+01
   2.063  0.3540E+00  0.2039E+01
   2.073  0.3537E+00  0.2042E+01
   2.083  0.3533E+00  0.2046E+01
   2.093  0.3529E+00  0.2049E+01
   2.103  0.3525E+00  0.2053E+01
   2.113  0.3520E+00  0.2056E+01
   2.123  0.3515E+00  0.2060E+01
   2.133  0.3509E+00  0.2063E+01
   2.143  0.3503E+00  0.2067E+01
   2.153  0.3497E+00  0.2070E+01
   2.163  0.3490E+00  0.2074E+01
   2.173  0.3483E+00  0.2077E+01
   2.183  0.3476E+00  0.2081E+01
   2.193  0.3468E+00  0.2084E+01
   2.203  0.3461E+00  0.2088E+01
   2.213  0.3453E+00  0.2091E+01
   2.223  0.3445E+00  0.2094E+01
   2.233  0.3437E+00  0.2098E+01
   2.243  0.3428E+00  0.2101E+01
   2.253  0.3420E+00  0.2105E+01
   2.263  0.3411E+00  0.2108E+01
   2.273  0.3402E+00  0.2112E+01
   2.283  0.3394E+00  0.2115E+01
   2.293  0.3385E+00  0.2118E+01
   2.303  0.3376E+00  0.2122E+01
   2.313  0.3368E+00  0.2125E+01
   2.323  0.3359E+00  0.2128E+01
   2.333  0.3350E+00  0.2132E+01
   2.343  0.3342E+00  0.2135E+01
   2.353  0.3333E+00  0.2138E+01
   2.363  0.3325E+00  0.2142E+01
   2.373  0.3317E+00  0.2145E+01
   2.383  0.3309E+00  0.2148E+01
   2.393  0.3301E+00  0.2152E+01
   2.403  0.3293E+00  0.2155E+01
   2.413  0.3286E+00  0.2158E+01
   2.423  0.3279E+00  0.2162E+01
   2.433  0.3272E+00  0.2165E+01
   2.443  0.3265E+00  0.2168E+01
   2.453  0.3259E+00  0.2171E+01
   2.463  0.3253E+00  0.2175E+01
   2.473  0.3247E+00  0.2178E+01
   2.483  0.3242E+00  0.2181E+01
   2.493  0.3237E+00  0.2184E+01
   2.503  0.3232E+00  0.2188E+01
   2.513  0.3228E+00  0.2191E+01
   2.523  0.3225E+00  0.2194E+01
   2.533  0.3221E+00  0.2197E+01
   2.543  0.3219E+00  0.2200E+01
   2.553  0.3216E+00  0.2204E+01
   2.563  0.3214E+00  0.2207E+01
   2.573  0.3213E+00  0.2210E+01
   2.583  0.3212E+00  0.2213E+01
   2.593  0.3212E+00  0.2217E+01
   2.603  0.3212E+00  0.2220E+01
   2.613  0.3213E+00  0.2223E+01
   2.623  0.3214E+00  0.2226E+01
   2.633  0.3216E+00  0.2229E+01
   2.643  0.3218E+00  0.2233E+01
   2.653  0.3221E+00  0.2236E+01
   2.663  0.3225E+00  0.2239E+01
   2.673  0.3229E+00  0.2242E+01
   2.683  0.3233E+00  0.2246E+01
   2.693  0.3239E+00  0.2249E+01
   2.703  0.3245E+00  0.2252E+01
   2.713  0.3251E+00  0.2255E+01
   2.723  0.3258E+00  0.2259E+01
   2.733  0.3266E+00  0.2262E+01
   2.743  0.3274E+00  0.2265E+01
   2.753  0.3283E+00  0.2268E+01
   2.763  0.3292E+00  0.2272E+01
   2.773  0.3302E+00  0.2275E+01
   2.783  0.3312E+00  0.2278E+01
   2.793  0.3323E+00  0.2282E+01
   2.803  0.3334E+00  0.2285E+01
   2.813  0.3346E+00  0.2288E+01
   2.823  0.3358E+00  0.2292E+01
   2.833  0.3371E+00  0.2295E+01
   2.843  0.3384E+00  0.2298E+01
   2.853  0.3398E+00  0.2302E+01
   2.863  0.3412E+00  0.2305E+01
   2.873  0.3426E+00  0.2309E+01
   2.883  0.3441E+00  0.2312E+01
   2.893  0.3456E+00  0.2315E+01
   2.903  0.3471E+00  0.2319E+01
   2.913  0.3487E+00  0.2322E+01
   2.923  0.3503E+00  0.2326E+01
   2.933  0.3518E+00  0.2329E+01
   2.943  0.3534E+00  0.2333E+01
   2.953  0.3551E+00  0.2337E+01
   2.963  0.3567E+00  0.2340E+01
   2.973  0.3583E+00  0.2344E+01
   2.983  0.3599E+00  0.2347E+01
   2.993  0.3615E+00  0.2351E+01
   3.003  0.3632E+00  0.2355E+01
   3.013  0.3648E+00  0.2358E+01
   3.023  0.3663E+00  0.2362E+01
   3.033  0.3679E+00  0.2366E+01
   3.043  0.3694E+00  0.2369E+01
   3.053  0.3710E+00  0.2373E+01
   3.063  0.3724E+00  0.2377E+01
   3.073  0.3739E+00  0.2380E+01
   3.083  0.3753E+00  0.2384E+01
   3.093  0.3767E+00  0.2388E+01
   3.103  0.3780E+00  0.2392E+01
   3.113  0.3792E+00  0.2396E+01
   3.123  0.3805E+00  0.2399E+01
   3.133  0.3816E+00  0.2403E+01
   3.143  0.3827E+00  0.2407E+01
   3.153  0.3837E+00  0.2411E+01
   3.163  0.3847E+00  0.2415E+01
   3.173  0.3856E+00  0.2418E+01
   3.183  0.3864E+00  0.2422E+01
   3.193  0.3872E+00  0.2426E+01
   3.203  0.3879E+00  0.2430E+01
   3.213  0.3884E+00  0.2434E+01
   3.223  0.3890E+00  0.2438E+01
   3.233  0.3894E+00  0.2442E+01
   3.243  0.3897E+00  0.2446E+01
   3.253  0.3900E+00  0.2450E+01
   3.263  0.3902E+00  0.2453E+01
   3.273  0.3903E+00  0.2457E+01
   3.283  0.3903E+00  0.2461E+01
   3.293  0.3902E+00  0.2465E+01
   3.303  0.3900E+00  0.2469E+01
   3.313  0.3897E+00  0.2473E+01
   3.323  0.3893E+00  0.2477E+01
   3.333  0.3889E+00  0.2481E+01
   3.343  0.3884E+00  0.2485E+01
   3.353  0.3877E+00  0.2489E+01
   3.363  0.3870E+00  0.2492E+01
   3.373  0.3862E+00  0.2496E+01
   3.383  0.3854E+00  0.2500E+01
   3.393  0.3844E+00  0.2504E+01
   3.403  0.3834E+00  0.2508E+01
   3.413  0.3823E+00  0.2512E+01
   3.423  0.3811E+00  0.2515E+01
   3.433  0.3798E+00  0.2519E+01
   3.443  0.3785E+00  0.2523E+01
   3.453  0.3771E+00  0.2527E+01
   3.463  0.3756E+00  0.2531E+01
   3.473  0.3741E+00  0.2534E+01
   3.483  0.3725E+00  0.2538E+01
   3.493  0.3709E+00  0.2542E+01
   3.503  0.3692E+00  0.2545E+01
   3.513  0.3675E+00  0.2549E+01
   3.523  0.3657E+00  0.2553E+01
   3.533  0.3639E+00  0.2556E+01
   3.543  0.3621E+00  0.2560E+01
   3.553  0.3602E+00  0.2564E+01
   3.563  0.3583E+00  0.2567E+01
   3.573  0.3564E+00  0.2571E+01
   3.583  0.3544E+00  0.2574E+01
   3.593  0.3524E+00  0.2578E+01
   3.603  0.3505E+00  0.2581E+01
   3.613  0.3485E+00  0.2585E+01
   3.623  0.3465E+00  0.2588E+01
   3.633  0.3445E+00  0.2592E+01
   3.643  0.3425E+00  0.2595E+01
   3.653  0.3405E+00  0.2599E+01
   3.663  0.3385E+00  0.2602E+01
   3.673  0.3366E+00  0.2605E+01
   3.683  0.3346E+00  0.2609E+01
   3.693  0.3327E+00  0.2612E+01
   3.703  0.3308E+00  0.2615E+01
   3.713  0.3289E+00  0.2619E+01
   3.723  0.3271E+00  0.2622E+01
   3.733  0.3253E+00  0.2625E+01
   3.743  0.3235E+00  0.2628E+01
   3.753  0.3217E+00  0.2632E+01
   3.763  0.3200E+00  0.2635E+01
   3.773  0.3184E+00  0.2638E+01
   3.783  0.3168E+00  0.2641E+01
   3.793  0.3152E+00  0.2644E+01
   3.803  0.3136E+00  0.2647E+01
   3.813  0.3122E+00  0.2650E+01
   3.823  0.3107E+00  0.2654E+01
   3.833  0.3093E+00  0.2657E+01
   3.843  0.3080E+00  0.2660E+01
   3.853  0.3067E+00  0.2663E+01
   3.863  0.3055E+00  0.2666E+01
   3.873  0.3043E+00  0.2669E+01
   3.883  0.3032E+00  0.2672E+01
   3.893  0.3021E+00  0.2675E+01
   3.903  0.3011E+00  0.2678E+01
   3.913  0.3002E+00  0.2681E+01
   3.923  0.2992E+00  0.2684E+01
   3.933  0.2984E+00  0.2687E+01
   3.943  0.2976E+00  0.2690E+01
   3.953  0.2969E+00  0.2693E+01
   3.963  0.2962E+00  0.2696E+01
   3.973  0.2955E+00  0.2699E+01
   3.983  0.2949E+00  0.2702E+01
   3.993  0.2944E+00  0.2705E+01
   4.003  0.2939E+00  0.2708E+01
   4.013  0.2934E+00  0.2711E+01
   4.023  0.2930E+00  0.2714E+01
   4.033  0.2927E+00  0.2716E+01
   4.043  0.2924E+00  0.2719E+01
   4.053  0.2921E+00  0.2722E+01
   4.063  0.2919E+00  0.2725E+01
   4.073  0.2917E+00  0.2728E+01
   4.083  0.2916E+00  0.2731E+01
   4.093  0.2915E+00  0.2734E+01
   4.103  0.2914E+00  0.2737E+01
   4.113  0.2914E+00  0.2740E+01
   4.123  0.2914E+00  0.2743E+01
   4.133  0.2914E+00  0.2746E+01
   4.143  0.2915E+00  0.2749E+01
   4.153  0.2916E+00  0.2751E+01
   4.163  0.2917E+00  0.2754E+01
   4.173  0.2919E+00  0.2757E+01
   4.183  0.2920E+00  0.2760E+01
   4.193  0.2923E+00  0.2763E+01
   4.203  0.2925E+00  0.2766E+01
   4.213  0.2928E+00  0.2769E+01
   4.223  0.2930E+00  0.2772E+01
   4.233  0.2934E+00  0.2775E+01
   4.243  0.2937E+00  0.2778E+01
   4.253  0.2941E+00  0.2781E+01
   4.263  0.2944E+00  0.2784E+01
   4.273  0.2948E+00  0.2787E+01
   4.283  0.2953E+00  0.2790E+01
   4.293  0.2957E+00  0.2793E+01
   4.303  0.2962E+00  0.2795E+01
   4.313  0.2967E+00  0.2798E+01
   4.323  0.2972E+00  0.2801E+01
   4.333  0.2977E+00  0.2804E+01
   4.343  0.2983E+00  0.2807E+01
   4.353  0.2989E+00  0.2810E+01
   4.363  0.2995E+00  0.2813E+01
   4.373  0.3001E+00  0.2816E+01
   4.383  0.3008E+00  0.2819E+01
   4.393  0.3014E+00  0.2822E+01
   4.403  0.3021E+00  0.2825E+01
   4.413  0.3029E+00  0.2828E+01
   4.423  0.3036E+00  0.2831E+01
   4.433  0.3044E+00  0.2835E+01
   4.443  0.3052E+00  0.2838E+01
   4.453  0.3060E+00  0.2841E+01
   4.463  0.3069E+00  0.2844E+01
   4.473  0.3078E+00  0.2847E+01
   4.483  0.3087E+00  0.2850E+01
   4.493  0.3097E+00  0.2853E+01
   4.503  0.3107E+00  0.2856E+01
   4.513  0.3117E+00  0.2859E+01
   4.523  0.3127E+00  0.2862E+01
   4.533  0.3138E+00  0.2865E+01
   4.543  0.3150E+00  0.2869E+01
   4.553  0.3161E+00  0.2872E+01
   4.563  0.3173E+00  0.2875E+01
   4.573  0.3185E+00  0.2878E+01
   4.583  0.3198E+00  0.2881E+01
   4.593  0.3211E+00  0.2885E+01
   4.603  0.3225E+00  0.2888E+01
   4.613  0.3239E+00  0.2891E+01
   4.623  0.3253E+00  0.2894E+01
   4.633  0.3267E+00  0.2898E+01
   4.643  0.3282E+00  0.2901E+01
   4.653  0.3298E+00  0.2904E+01
   4.663  0.3314E+00  0.2907E+01
   4.673  0.3330E+00  0.2911E+01
   4.683  0.3346E+00  0.2914E+01
   4.693  0.3363E+00  0.2917E+01
   4.703  0.3380E+00  0.2921E+01
   4.713  0.3398E+00  0.2924E+01
   4.723  0.3416E+00  0.2928E+01
   4.733  0.3434E+00  0.2931E+01
   4.743  0.3453E+00  0.2935E+01
   4.753  0.3472E+00  0.2938E+01
   4.763  0.3491E+00  0.2942E+01
   4.773  0.3511E+00  0.2945E+01
   4.783  0.3530E+00  0.2949E+01
   4.793  0.3551E+00  0.2952E+01
   4.803  0.3571E+00  0.2956E+01
   4.813  0.3591E+00  0.2959E+01
   4.823  0.3612E+00  0.2963E+01
   4.833  0.3633E+00  0.2967E+01
   4.843  0.3654E+00  0.2970E+01
   4.853  0.3676E+00  0.2974E+01
   4.863  0.3697E+00  0.2978E+01
   4.873  0.3719E+00  0.2981E+01
   4.883  0.3740E+00  0.2985E+01
   4.893  0.3762E+00  0.2989E+01
   4.903  0.3784E+00  0.2993E+01
   4.913  0.3805E+00  0.2996E+01
   4.923  0.3827E+00  0.3000E+01
   4.933  0.3849E+00  0.3004E+01
   4.943  0.3871E+00  0.3008E+01
   4.953  0.3892E+00  0.3012E+01
   4.963  0.3914E+00  0.3016E+01
   4.973  0.3935E+00  0.3020E+01
   4.983  0.3956E+00  0.3024E+01
   4.993  0.3977E+00  0.3028E+01
   5.003  0.3998E+00  0.3032E+01
   5.013  0.4019E+00  0.3036E+01
   5.023  0.4039E+00  0.3040E+01
   5.033  0.4059E+00  0.3044E+01
   5.043  0.4078E+00  0.3048E+01
   5.053  0.4098E+00  0.3052E+01
   5.063  0.4117E+00  0.3056E+01
   5.073  0.4135E+00  0.3060E+01
   5.083  0.4153E+00  0.3064E+01
   5.093  0.4171E+00  0.3068E+01
   5.103  0.4188E+00  0.3073E+01
   5.113  0.4205E+00  0.3077E+01
   5.123  0.4221E+00  0.3081E+01
   5.133  0.4237E+00  0.3085E+01
   5.143  0.4252E+00  0.3090E+01
   5.153  0.4267E+00  0.3094E+01
   5.163  0.4281E+00  0.3098E+01
   5.173  0.4294E+00  0.3102E+01
   5.183  0.4307E+00  0.3107E+01
   5.193  0.4319E+00  0.3111E+01
   5.203  0.4331E+00  0.3115E+01
   5.213  0.4341E+00  0.3120E+01
   5.223  0.4352E+00  0.3124E+01
   5.233  0.4361E+00  0.3128E+01
   5.243  0.4370E+00  0.3133E+01
   5.253  0.4378E+00  0.3137E+01
   5.263  0.4385E+00  0.3142E+01
   5.273  0.4392E+00  0.3146E+01
   5.283  0.4398E+00  0.3150E+01
   5.293  0.4403E+00  0.3155E+01
   5.303  0.4407E+00  0.3159E+01
   5.313  0.4411E+00  0.3164E+01
   5.323  0.4414E+00  0.3168E+01
   5.333  0.4416E+00  0.3172E+01
   5.343  0.4418E+00  0.3177E+01
   5.353  0.4419E+00  0.3181E+01
   5.363  0.4419E+00  0.3186E+01
   5.373  0.4418E+00  0.3190E+01
   5.383  0.4417E+00  0.3194E+01
   5.393  0.4415E+00  0.3199E+01
   5.403  0.4413E+00  0.3203E+01
   5.413  0.4409E+00  0.3208E+01
   5.423  0.4406E+00  0.3212E+01
   5.433  0.4401E+00  0.3216E+01
   5.443  0.4396E+00  0.3221E+01
   5.453  0.4391E+00  0.3225E+01
   5.463  0.4385E+00  0.3230E+01
   5.473  0.4378E+00  0.3234E+01
   5.483  0.4371E+00  0.3238E+01
   5.493  0.4364E+00  0.3243E+01
   5.503  0.4356E+00  0.3247E+01
   5.513  0.4348E+00  0.3251E+01
   5.523  0.4339E+00  0.3256E+01
   5.533  0.4330E+00  0.3260E+01
   5.543  0.4321E+00  0.3264E+01
   5.553  0.4311E+00  0.3269E+01
   5.563  0.4302E+00  0.3273E+01
   5.573  0.4292E+00  0.3277E+01
   5.583  0.4282E+00  0.3282E+01
   5.593  0.4271E+00  0.3286E+01
   5.603  0.4261E+00  0.3290E+01
   5.613  0.4251E+00  0.3294E+01
   5.623  0.4241E+00  0.3299E+01
   5.633  0.4230E+00  0.3303E+01
   5.643  0.4220E+00  0.3307E+01
   5.653  0.4210E+00  0.3311E+01
   5.663  0.4200E+00  0.3316E+01
   5.673  0.4190E+00  0.3320E+01
   5.683  0.4181E+00  0.3324E+01
   5.693  0.4171E+00  0.3328E+01
   5.703  0.4162E+00  0.3332E+01
   5.713  0.4154E+00  0.3336E+01
   5.723  0.4145E+00  0.3341E+01
   5.733  0.4137E+00  0.3345E+01
   5.743  0.4130E+00  0.3349E+01
   5.753  0.4123E+00  0.3353E+01
   5.763  0.4116E+00  0.3357E+01
   5.773  0.4110E+00  0.3361E+01
   5.783  0.4104E+00  0.3365E+01
   5.793  0.4100E+00  0.3369E+01
   5.803  0.4095E+00  0.3373E+01
   5.813  0.4091E+00  0.3378E+01
   5.823  0.4088E+00  0.3382E+01
   5.833  0.4086E+00  0.3386E+01
   5.843  0.4084E+00  0.3390E+01
   5.853  0.4083E+00  0.3394E+01
   5.863  0.4083E+00  0.3398E+01
   5.873  0.4083E+00  0.3402E+01
   5.883  0.4084E+00  0.3406E+01
   5.893  0.4086E+00  0.3410E+01
   5.903  0.4089E+00  0.3414E+01
   5.913  0.4092E+00  0.3418E+01
   5.923  0.4096E+00  0.3423E+01
   5.933  0.4101E+00  0.3427E+01
   5.943  0.4107E+00  0.3431E+01
   5.953  0.4113E+00  0.3435E+01
   5.963  0.4120E+00  0.3439E+01
   5.973  0.4128E+00  0.3443E+01
   5.983  0.4137E+00  0.3447E+01
   5.993  0.4146E+00  0.3451E+01
   6.003  0.4156E+00  0.3456E+01
   6.013  0.4167E+00  0.3460E+01
   6.023  0.4178E+00  0.3464E+01
   6.033  0.4190E+00  0.3468E+01
   6.043  0.4203E+00  0.3472E+01
   6.053  0.4216E+00  0.3476E+01
   6.063  0.4230E+00  0.3481E+01
   6.073  0.4245E+00  0.3485E+01
   6.083  0.4260E+00  0.3489E+01
   6.093  0.4275E+00  0.3493E+01
   6.103  0.4291E+00  0.3498E+01
   6.113  0.4308E+00  0.3502E+01
   6.123  0.4325E+00  0.3506E+01
   6.133  0.4342E+00  0.3511E+01
   6.143  0.4359E+00  0.3515E+01
   6.153  0.4377E+00  0.3519E+01
   6.163  0.4396E+00  0.3524E+01
   6.173  0.4414E+00  0.3528E+01
   6.183  0.4433E+00  0.3533E+01
   6.193  0.4452E+00  0.3537E+01
   6.203  0.4471E+00  0.3542E+01
   6.213  0.4490E+00  0.3546E+01
   6.223  0.4509E+00  0.3551E+01
   6.233  0.4528E+00  0.3555E+01
   6.243  0.4547E+00  0.3560E+01
   6.253  0.4566E+00  0.3564E+01
   6.263  0.4585E+00  0.3569E+01
   6.273  0.4604E+00  0.3573E+01
   6.283  0.4623E+00  0.3578E+01
   6.293  0.4641E+00  0.3583E+01
   6.303  0.4659E+00  0.3587E+01
   6.313  0.4677E+00  0.3592E+01
   6.323  0.4695E+00  0.3597E+01
   6.333  0.4712E+00  0.3601E+01
   6.343  0.4729E+00  0.3606E+01
   6.353  0.4745E+00  0.3611E+01
   6.363  0.4761E+00  0.3616E+01
   6.373  0.4776E+00  0.3620E+01
   6.383  0.4791E+00  0.3625E+01
   6.393  0.4805E+00  0.3630E+01
   6.403  0.4819E+00  0.3635E+01
   6.413  0.4831E+00  0.3640E+01
   6.423  0.4844E+00  0.3645E+01
   6.433  0.4855E+00  0.3649E+01
   6.443  0.4866E+00  0.3654E+01
   6.453  0.4876E+00  0.3659E+01
   6.463  0.4885E+00  0.3664E+01
   6.473  0.4893E+00  0.3669E+01
   6.483  0.4901E+00  0.3674E+01
   6.493  0.4907E+00  0.3679E+01
   6.503  0.4913E+00  0.3684E+01
   6.513  0.4918E+00  0.3689E+01
   6.523  0.4922E+00  0.3694E+01
   6.533  0.4925E+00  0.3698E+01
   6.543  0.4927E+00  0.3703E+01
   6.553  0.4928E+00  0.3708E+01
   6.563  0.4928E+00  0.3713E+01
   6.573  0.4927E+00  0.3718E+01
   6.583  0.4926E+00  0.3723E+01
   6.593  0.4923E+00  0.3728E+01
   6.603  0.4919E+00  0.3733E+01
   6.613  0.4914E+00  0.3738E+01
   6.623  0.4908E+00  0.3743E+01
   6.633  0.4902E+00  0.3748E+01
   6.643  0.4894E+00  0.3753E+01
   6.653  0.4885E+00  0.3757E+01
   6.663  0.4875E+00  0.3762E+01
   6.673  0.4865E+00  0.3767E+01
   6.683  0.4853E+00  0.3772E+01
   6.693  0.4840E+00  0.3777E+01
   6.703  0.4827E+00  0.3782E+01
   6.713  0.4812E+00  0.3786E+01
   6.723  0.4797E+00  0.3791E+01
   6.733  0.4780E+00  0.3796E+01
   6.743  0.4763E+00  0.3801E+01
   6.753  0.4745E+00  0.3806E+01
   6.763  0.4726E+00  0.3810E+01
   6.773  0.4706E+00  0.3815E+01
   6.783  0.4686E+00  0.3820E+01
   6.793  0.4664E+00  0.3824E+01
   6.803  0.4642E+00  0.3829E+01
   6.813  0.4620E+00  0.3834E+01
   6.823  0.4596E+00  0.3838E+01
   6.833  0.4572E+00  0.3843E+01
   6.843  0.4547E+00  0.3847E+01
   6.853  0.4522E+00  0.3852E+01
   6.863  0.4496E+00  0.3856E+01
   6.873  0.4470E+00  0.3861E+01
   6.883  0.4443E+00  0.3865E+01
   6.893  0.4416E+00  0.3870E+01
   6.903  0.4388E+00  0.3874E+01
   6.913  0.4360E+00  0.3878E+01
   6.923  0.4331E+00  0.3883E+01
   6.933  0.4302E+00  0.3887E+01
   6.943  0.4273E+00  0.3891E+01
   6.953  0.4244E+00  0.3896E+01
   6.963  0.4214E+00  0.3900E+01
   6.973  0.4185E+00  0.3904E+01
   6.983  0.4155E+00  0.3908E+01
   6.993  0.4125E+00  0.3912E+01
   7.003  0.4095E+00  0.3916E+01
   7.013  0.4065E+00  0.3920E+01
   7.023  0.4035E+00  0.3924E+01
   7.033  0.4005E+00  0.3928E+01
   7.043  0.3975E+00  0.3932E+01
   7.053  0.3945E+00  0.3936E+01
   7.063  0.3916E+00  0.3940E+01
   7.073  0.3887E+00  0.3944E+01
   7.083  0.3858E+00  0.3948E+01
   7.093  0.3829E+00  0.3952E+01
   7.103  0.3800E+00  0.3956E+01
   7.113  0.3772E+00  0.3959E+01
   7.123  0.3745E+00  0.3963E+01
   7.133  0.3717E+00  0.3967E+01
   7.143  0.3691E+00  0.3971E+01
   7.153  0.3664E+00  0.3974E+01
   7.163  0.3638E+00  0.3978E+01
   7.173  0.3613E+00  0.3982E+01
   7.183  0.3588E+00  0.3985E+01
   7.193  0.3564E+00  0.3989E+01
   7.203  0.3540E+00  0.3992E+01
   7.213  0.3517E+00  0.3996E+01
   7.223  0.3495E+00  0.3999E+01
   7.233  0.3473E+00  0.4003E+01
   7.243  0.3453E+00  0.4006E+01
   7.253  0.3432E+00  0.4010E+01
   7.263  0.3413E+00  0.4013E+01
   7.273  0.3394E+00  0.4016E+01
   7.283  0.3376E+00  0.4020E+01
   7.293  0.3359E+00  0.4023E+01
   7.303  0.3342E+00  0.4026E+01
   7.313  0.3327E+00  0.4030E+01
   7.323  0.3312E+00  0.4033E+01
   7.333  0.3298E+00  0.4036E+01
   7.343  0.3284E+00  0.4040E+01
   7.353  0.3272E+00  0.4043E+01
   7.363  0.3260E+00  0.4046E+01
   7.373  0.3249E+00  0.4049E+01
   7.383  0.3239E+00  0.4053E+01
   7.393  0.3230E+00  0.4056E+01
   7.403  0.3222E+00  0.4059E+01
   7.413  0.3214E+00  0.4062E+01
   7.423  0.3207E+00  0.4066E+01
   7.433  0.3201E+00  0.4069E+01
   7.443  0.3196E+00  0.4072E+01
   7.453  0.3192E+00  0.4075E+01
   7.463  0.3188E+00  0.4078E+01
   7.473  0.3185E+00  0.4082E+01
   7.483  0.3183E+00  0.4085E+01
   7.493  0.3181E+00  0.4088E+01
   7.503  0.3181E+00  0.4091E+01
   7.513  0.3181E+00  0.4094E+01
   7.523  0.3181E+00  0.4097E+01
   7.533  0.3183E+00  0.4101E+01
   7.543  0.3185E+00  0.4104E+01
   7.553  0.3187E+00  0.4107E+01
   7.563  0.3191E+00  0.4110E+01
   7.573  0.3195E+00  0.4113E+01
   7.583  0.3199E+00  0.4117E+01
   7.593  0.3204E+00  0.4120E+01
   7.603  0.3210E+00  0.4123E+01
   7.613  0.3216E+00  0.4126E+01
   7.623  0.3222E+00  0.4129E+01
   7.633  0.3230E+00  0.4133E+01
   7.643  0.3237E+00  0.4136E+01
   7.653  0.3245E+00  0.4139E+01
   7.663  0.3254E+00  0.4142E+01
   7.673  0.3263E+00  0.4146E+01
   7.683  0.3272E+00  0.4149E+01
   7.693  0.3282E+00  0.4152E+01
   7.703  0.3292E+00  0.4156E+01
   7.713  0.3302E+00  0.4159E+01
   7.723  0.3313E+00  0.4162E+01
   7.733  0.3324E+00  0.4165E+01
   7.743  0.3336E+00  0.4169E+01
   7.753  0.3348E+00  0.4172E+01
   7.763  0.3360E+00  0.4175E+01
   7.773  0.3372E+00  0.4179E+01
   7.783  0.3384E+00  0.4182E+01
   7.793  0.3397E+00  0.4186E+01
   7.803  0.3410E+00  0.4189E+01
   7.813  0.3424E+00  0.4192E+01
   7.823  0.3437E+00  0.4196E+01
   7.833  0.3451E+00  0.4199E+01
   7.843  0.3465E+00  0.4203E+01
   7.853  0.3479E+00  0.4206E+01
   7.863  0.3493E+00  0.4210E+01
   7.873  0.3508E+00  0.4213E+01
   7.883  0.3523E+00  0.4217E+01
   7.893  0.3538E+00  0.4220E+01
   7.903  0.3553E+00  0.4224E+01
   7.913  0.3568E+00  0.4227E+01
   7.923  0.3584E+00  0.4231E+01
   7.933  0.3599E+00  0.4235E+01
   7.943  0.3615E+00  0.4238E+01
   7.953  0.3631E+00  0.4242E+01
   7.963  0.3648E+00  0.4246E+01
   7.973  0.3664E+00  0.4249E+01
   7.983  0.3681E+00  0.4253E+01
   7.993  0.3698E+00  0.4257E+01
   8.003  0.3715E+00  0.4260E+01
   8.013  0.3732E+00  0.4264E+01
   8.023  0.3749E+00  0.4268E+01
   8.033  0.3767E+00  0.4272E+01
   8.043  0.3785E+00  0.4275E+01
   8.053  0.3803E+00  0.4279E+01
   8.063  0.3821E+00  0.4283E+01
   8.073  0.3840E+00  0.4287E+01
   8.083  0.3859E+00  0.4291E+01
   8.093  0.3877E+00  0.4295E+01
   8.103  0.3897E+00  0.4298E+01
   8.113  0.3916E+00  0.4302E+01
   8.123  0.3936E+00  0.4306E+01
   8.133  0.3955E+00  0.4310E+01
   8.143  0.3975E+00  0.4314E+01
   8.153  0.3996E+00  0.4318E+01
   8.163  0.4016E+00  0.4322E+01
   8.173  0.4037E+00  0.4326E+01
   8.183  0.4058E+00  0.4330E+01
   8.193  0.4079E+00  0.4334E+01
   8.203  0.4100E+00  0.4339E+01
   8.213  0.4121E+00  0.4343E+01
   8.223  0.4143E+00  0.4347E+01
   8.233  0.4164E+00  0.4351E+01
   8.243  0.4186E+00  0.4355E+01
   8.253  0.4208E+00  0.4359E+01
   8.263  0.4230E+00  0.4364E+01
   8.273  0.4252E+00  0.4368E+01
   8.283  0.4274E+00  0.4372E+01
   8.293  0.4297E+00  0.4376E+01
   8.303  0.4319E+00  0.4381E+01
   8.313  0.4341E+00  0.4385E+01
   8.323  0.4363E+00  0.4389E+01
   8.333  0.4386E+00  0.4394E+01
   8.343  0.4408E+00  0.4398E+01
   8.353  0.4430E+00  0.4403E+01
   8.363  0.4452E+00  0.4407E+01
   8.373  0.4474E+00  0.4412E+01
   8.383  0.4496E+00  0.4416E+01
   8.393  0.4517E+00  0.4421E+01
   8.403  0.4539E+00  0.4425E+01
   8.413  0.4560E+00  0.4430E+01
   8.423  0.4581E+00  0.4434E+01
   8.433  0.4602E+00  0.4439E+01
   8.443  0.4622E+00  0.4443E+01
   8.453  0.4642E+00  0.4448E+01
   8.463  0.4662E+00  0.4453E+01
   8.473  0.4681E+00  0.4457E+01
   8.483  0.4700E+00  0.4462E+01
   8.493  0.4718E+00  0.4467E+01
   8.503  0.4737E+00  0.4472E+01
   8.513  0.4754E+00  0.4476E+01
   8.523  0.4771E+00  0.4481E+01
   8.533  0.4788E+00  0.4486E+01
   8.543  0.4803E+00  0.4491E+01
   8.553  0.4819E+00  0.4496E+01
   8.563  0.4834E+00  0.4500E+01
   8.573  0.4848E+00  0.4505E+01
   8.583  0.4861E+00  0.4510E+01
   8.593  0.4874E+00  0.4515E+01
   8.603  0.4886E+00  0.4520E+01
   8.613  0.4898E+00  0.4525E+01
   8.623  0.4909E+00  0.4530E+01
   8.633  0.4919E+00  0.4535E+01
   8.643  0.4928E+00  0.4540E+01
   8.653  0.4937E+00  0.4544E+01
   8.663  0.4944E+00  0.4549E+01
   8.673  0.4952E+00  0.4554E+01
   8.683  0.4958E+00  0.4559E+01
   8.693  0.4963E+00  0.4564E+01
   8.703  0.4968E+00  0.4569E+01
   8.713  0.4972E+00  0.4574E+01
   8.723  0.4976E+00  0.4579E+01
   8.733  0.4978E+00  0.4584E+01
   8.743  0.4980E+00  0.4589E+01
   8.753  0.4981E+00  0.4594E+01
   8.763  0.4981E+00  0.4599E+01
   8.773  0.4980E+00  0.4604E+01
   8.783  0.4979E+00  0.4609E+01
   8.793  0.4977E+00  0.4614E+01
   8.803  0.4974E+00  0.4619E+01
   8.813  0.4970E+00  0.4624E+01
   8.823  0.4966E+00  0.4629E+01
   8.833  0.4961E+00  0.4634E+01
   8.843  0.4955E+00  0.4639E+01
   8.853  0.4949E+00  0.4644E+01
   8.863  0.4942E+00  0.4649E+01
   8.873  0.4935E+00  0.4654E+01
   8.883  0.4926E+00  0.4659E+01
   8.893  0.4918E+00  0.4664E+01
   8.903  0.4908E+00  0.4668E+01
   8.913  0.4898E+00  0.4673E+01
   8.923  0.4888E+00  0.4678E+01
   8.933  0.4877E+00  0.4683E+01
   8.943  0.4865E+00  0.4688E+01
   8.953  0.4853E+00  0.4693E+01
   8.963  0.4841E+00  0.4698E+01
   8.973  0.4828E+00  0.4703E+01
   8.983  0.4815E+00  0.4707E+01
   8.993  0.4801E+00  0.4712E+01
   9.003  0.4787E+00  0.4717E+01
   9.013  0.4773E+00  0.4722E+01
   9.023  0.4758E+00  0.4726E+01
   9.033  0.4744E+00  0.4731E+01
   9.043  0.4728E+00  0.4736E+01
   9.053  0.4713E+00  0.4741E+01
   9.063  0.4698E+00  0.4745E+01
   9.073  0.4682E+00  0.4750E+01
   9.083  0.4666E+00  0.4755E+01
   9.093  0.4650E+00  0.4759E+01
   9.103  0.4634E+00  0.4764E+01
   9.113  0.4618E+00  0.4769E+01
   9.123  0.4602E+00  0.4773E+01
   9.133  0.4586E+00  0.4778E+01
   9.143  0.4570E+00  0.4782E+01
   9.153  0.4554E+00  0.4787E+01
   9.163  0.4538E+00  0.4791E+01
   9.173  0.4522E+00  0.4796E+01
   9.183  0.4506E+00  0.4800E+01
   9.193  0.4490E+00  0.4805E+01
   9.203  0.4475E+00  0.4809E+01
   9.213  0.4459E+00  0.4814E+01
   9.223  0.4444E+00  0.4818E+01
   9.233  0.4429E+00  0.4823E+01
   9.243  0.4415E+00  0.4827E+01
   9.253  0.4400E+00  0.4832E+01
   9.263  0.4386E+00  0.4836E+01
   9.273  0.4373E+00  0.4840E+01
   9.283  0.4360E+00  0.4845E+01
   9.293  0.4347E+00  0.4849E+01
   9.303  0.4334E+00  0.4853E+01
   9.313  0.4322E+00  0.4858E+01
   9.323  0.4311E+00  0.4862E+01
   9.333  0.4300E+00  0.4866E+01
   9.343  0.4289E+00  0.4871E+01
   9.353  0.4279E+00  0.4875E+01
   9.363  0.4269E+00  0.4879E+01
   9.373  0.4260E+00  0.4883E+01
   9.383  0.4252E+00  0.4888E+01
   9.393  0.4244E+00  0.4892E+01
   9.403  0.4237E+00  0.4896E+01
   9.413  0.4231E+00  0.4900E+01
   9.423  0.4225E+00  0.4905E+01
   9.433  0.4220E+00  0.4909E+01
   9.443  0.4215E+00  0.4913E+01
   9.453  0.4211E+00  0.4917E+01
   9.463  0.4208E+00  0.4921E+01
   9.473  0.4206E+00  0.4926E+01
   9.483  0.4204E+00  0.4930E+01
   9.493  0.4203E+00  0.4934E+01
   9.503  0.4203E+00  0.4938E+01
   9.513  0.4204E+00  0.4942E+01
   9.523  0.4205E+00  0.4947E+01
   9.533  0.4207E+00  0.4951E+01
   9.543  0.4210E+00  0.4955E+01
   9.553  0.4214E+00  0.4959E+01
   9.563  0.4218E+00  0.4964E+01
   9.573  0.4224E+00  0.4968E+01
   9.583  0.4230E+00  0.4972E+01
   9.593  0.4236E+00  0.4976E+01
   9.603  0.4244E+00  0.4980E+01
   9.613  0.4252E+00  0.4985E+01
   9.623  0.4261E+00  0.4989E+01
   9.633  0.4271E+00  0.4993E+01
   9.643  0.4281E+00  0.4998E+01
   9.653  0.4293E+00  0.5002E+01
   9.663  0.4305E+00  0.5006E+01
   9.673  0.4317E+00  0.5010E+01
   9.683  0.4330E+00  0.5015E+01
   9.693  0.4344E+00  0.5019E+01
   9.703  0.4359E+00  0.5023E+01
   9.713  0.4374E+00  0.5028E+01
   9.723  0.4389E+00  0.5032E+01
   9.733  0.4405E+00  0.5037E+01
   9.743  0.4422E+00  0.5041E+01
   9.753  0.4439E+00  0.5045E+01
   9.763  0.4457E+00  0.5050E+01
   9.773  0.4475E+00  0.5054E+01
   9.783  0.4493E+00  0.5059E+01
   9.793  0.4512E+00  0.5063E+01
   9.803  0.4531E+00  0.5068E+01
   9.813  0.4551E+00  0.5073E+01
   9.823  0.4570E+00  0.5077E+01
   9.833  0.4590E+00  0.5082E+01
   9.843  0.4610E+00  0.5086E+01
   9.853  0.4630E+00  0.5091E+01
   9.863  0.4651E+00  0.5096E+01
   9.873  0.4671E+00  0.5100E+01
   9.883  0.4691E+00  0.5105E+01
   9.893  0.4712E+00  0.5110E+01
   9.903  0.4732E+00  0.5114E+01
   9.913  0.4752E+00  0.5119E+01
   9.923  0.4772E+00  0.5124E+01
   9.933  0.4792E+00  0.5129E+01
   9.943  0.4812E+00  0.5133E+01
   9.953  0.4832E+00  0.5138E+01
   9.963  0.4851E+00  0.5143E+01
   9.973  0.4870E+00  0.5148E+01
   9.983  0.4889E+00  0.5153E+01
   9.993  0.4907E+00  0.5158E+01
  10.003  0.4925E+00  0.5163E+01
  10.013  0.4943E+00  0.5168E+01
  10.023  0.4960E+00  0.5173E+01
  10.033  0.4977E+00  0.5178E+01
  10.043  0.4993E+00  0.5183E+01
  10.053  0.5009E+00  0.5188E+01
  10.063  0.5024E+00  0.5193E+01
  10.073  0.5039E+00  0.5198E+01
  10.083  0.5053E+00  0.5203E+01
  10.093  0.5067E+00  0.5208E+01
  10.103  0.5080E+00  0.5213E+01
  10.113  0.5092E+00  0.5218E+01
  10.123  0.5104E+00  0.5223E+01
  10.133  0.5115E+00  0.5228E+01
  10.143  0.5126E+00  0.5233E+01
  10.153  0.5136E+00  0.5238E+01
  10.163  0.5145E+00  0.5244E+01
  10.173  0.5153E+00  0.5249E+01
  10.183  0.5162E+00  0.5254E+01
  10.193  0.5169E+00  0.5259E+01
  10.203  0.5176E+00  0.5264E+01
  10.213  0.5182E+00  0.5269E+01
  10.223  0.5187E+00  0.5275E+01
  10.233  0.5192E+00  0.5280E+01
  10.243  0.5197E+00  0.5285E+01
  10.253  0.5200E+00  0.5290E+01
  10.263  0.5203E+00  0.5295E+01
  10.273  0.5206E+00  0.5301E+01
  10.283  0.5208E+00  0.5306E+01
  10.293  0.5209E+00  0.5311E+01
  10.303  0.5210E+00  0.5316E+01
  10.313  0.5211E+00  0.5321E+01
  10.323  0.5210E+00  0.5327E+01
  10.333  0.5210E+00  0.5332E+01
  10.343  0.5209E+00  0.5337E+01
  10.353  0.5207E+00  0.5342E+01
  10.363  0.5205E+00  0.5348E+01
  10.373  0.5203E+00  0.5353E+01
  10.383  0.5200E+00  0.5358E+01
  10.393  0.5196E+00  0.5363E+01
  10.403  0.5193E+00  0.5368E+01
  10.413  0.5188E+00  0.5374E+01
  10.423  0.5184E+00  0.5379E+01
  10.433  0.5179E+00  0.5384E+01
  10.443  0.5174E+00  0.5389E+01
  10.453  0.5168E+00  0.5394E+01
  10.463  0.5162E+00  0.5399E+01
  10.473  0.5156E+00  0.5405E+01
  10.483  0.5150E+00  0.5410E+01
  10.493  0.5143E+00  0.5415E+01
  10.503  0.5136E+00  0.5420E+01
  10.513  0.5128E+00  0.5425E+01
  10.523  0.5120E+00  0.5430E+01
  10.533  0.5112E+00  0.5435E+01
  10.543  0.5104E+00  0.5440E+01
  10.553  0.5095E+00  0.5446E+01
  10.563  0.5087E+00  0.5451E+01
  10.573  0.5077E+00  0.5456E+01
  10.583  0.5068E+00  0.5461E+01
  10.593  0.5058E+00  0.5466E+01
  10.603  0.5048E+00  0.5471E+01
  10.613  0.5038E+00  0.5476E+01
  10.623  0.5027E+00  0.5481E+01
  10.633  0.5016E+00  0.5486E+01
  10.643  0.5005E+00  0.5491E+01
  10.653  0.4994E+00  0.5496E+01
  10.663  0.4982E+00  0.5501E+01
  10.673  0.4970E+00  0.5506E+01
  10.683  0.4957E+00  0.5511E+01
  10.693  0.4945E+00  0.5516E+01
  10.703  0.4932E+00  0.5521E+01
  10.713  0.4918E+00  0.5526E+01
  10.723  0.4904E+00  0.5531E+01
  10.733  0.4891E+00  0.5535E+01
  10.743  0.4876E+00  0.5540E+01
  10.753  0.4862E+00  0.5545E+01
  10.763  0.4847E+00  0.5550E+01
  10.773  0.4831E+00  0.5555E+01
  10.783  0.4816E+00  0.5560E+01
  10.793  0.4800E+00  0.5564E+01
  10.803  0.4784E+00  0.5569E+01
  10.813  0.4767E+00  0.5574E+01
  10.823  0.4751E+00  0.5579E+01
  10.833  0.4734E+00  0.5584E+01
  10.843  0.4716E+00  0.5588E+01
  10.853  0.4699E+00  0.5593E+01
  10.863  0.4681E+00  0.5598E+01
  10.873  0.4663E+00  0.5602E+01
  10.883  0.4645E+00  0.5607E+01
  10.893  0.4626E+00  0.5612E+01
  10.903  0.4608E+00  0.5616E+01
  10.913  0.4589E+00  0.5621E+01
  10.923  0.4570E+00  0.5625E+01
  10.933  0.4551E+00  0.5630E+01
  10.943  0.4532E+00  0.5634E+01
  10.953  0.4513E+00  0.5639E+01
  10.963  0.4494E+00  0.5643E+01
  10.973  0.4474E+00  0.5648E+01
  10.983  0.4455E+00  0.5652E+01
  10.993  0.4436E+00  0.5657E+01
  11.003  0.4417E+00  0.5661E+01
  11.013  0.4398E+00  0.5666E+01
  11.023  0.4380E+00  0.5670E+01
  11.033  0.4361E+00  0.5674E+01
  11.043  0.4343E+00  0.5679E+01
  11.053  0.4325E+00  0.5683E+01
  11.063  0.4307E+00  0.5687E+01
  11.073  0.4290E+00  0.5692E+01
  11.083  0.4272E+00  0.5696E+01
  11.093  0.4256E+00  0.5700E+01
  11.103  0.4240E+00  0.5704E+01
  11.113  0.4224E+00  0.5709E+01
  11.123  0.4208E+00  0.5713E+01
  11.133  0.4194E+00  0.5717E+01
  11.143  0.4179E+00  0.5721E+01
  11.153  0.4166E+00  0.5725E+01
  11.163  0.4153E+00  0.5729E+01
  11.173  0.4140E+00  0.5734E+01
  11.183  0.4129E+00  0.5738E+01
  11.193  0.4118E+00  0.5742E+01
  11.203  0.4107E+00  0.5746E+01
  11.213  0.4098E+00  0.5750E+01
  11.223  0.4089E+00  0.5754E+01
  11.233  0.4081E+00  0.5758E+01
  11.243  0.4073E+00  0.5762E+01
  11.253  0.4067E+00  0.5766E+01
  11.263  0.4061E+00  0.5770E+01
  11.273  0.4056E+00  0.5774E+01
  11.283  0.4052E+00  0.5779E+01
  11.293  0.4049E+00  0.5783E+01
  11.303  0.4047E+00  0.5787E+01
  11.313  0.4045E+00  0.5791E+01
  11.323  0.4044E+00  0.5795E+01
  11.333  0.4044E+00  0.5799E+01
  11.343  0.4045E+00  0.5803E+01
  11.353  0.4047E+00  0.5807E+01
  11.363  0.4049E+00  0.5811E+01
  11.373  0.4053E+00  0.5815E+01
  11.383  0.4057E+00  0.5819E+01
  11.393  0.4061E+00  0.5823E+01
  11.403  0.4067E+00  0.5827E+01
  11.413  0.4073E+00  0.5831E+01
  11.423  0.4080E+00  0.5835E+01
  11.433  0.4087E+00  0.5839E+01
  11.443  0.4095E+00  0.5843E+01
  11.453  0.4104E+00  0.5848E+01
  11.463  0.4113E+00  0.5852E+01
  11.473  0.4123E+00  0.5856E+01
  11.483  0.4133E+00  0.5860E+01
  11.493  0.4144E+00  0.5864E+01
  11.503  0.4155E+00  0.5868E+01
  11.513  0.4167E+00  0.5872E+01
  11.523  0.4178E+00  0.5877E+01
  11.533  0.4191E+00  0.5881E+01
  11.543  0.4203E+00  0.5885E+01
  11.553  0.4216E+00  0.5889E+01
  11.563  0.4229E+00  0.5893E+01
  11.573  0.4242E+00  0.5898E+01
  11.583  0.4256E+00  0.5902E+01
  11.593  0.4269E+00  0.5906E+01
  11.603  0.4283E+00  0.5910E+01
  11.613  0.4297E+00  0.5915E+01
  11.623  0.4310E+00  0.5919E+01
  11.633  0.4324E+00  0.5923E+01
  11.643  0.4338E+00  0.5928E+01
  11.653  0.4352E+00  0.5932E+01
  11.663  0.4365E+00  0.5936E+01
  11.673  0.4379E+00  0.5941E+01
  11.683  0.4392E+00  0.5945E+01
  11.693  0.4406E+00  0.5950E+01
  11.703  0.4419E+00  0.5954E+01
  11.713  0.4432E+00  0.5959E+01
  11.723  0.4445E+00  0.5963E+01
  11.733  0.4458E+00  0.5967E+01
  11.743  0.4471E+00  0.5972E+01
  11.753  0.4484E+00  0.5976E+01
  11.763  0.4496E+00  0.5981E+01
  11.773  0.4509E+00  0.5985E+01
  11.783  0.4521E+00  0.5990E+01
  11.793  0.4533E+00  0.5994E+01
  11.803  0.4545E+00  0.5999E+01
  11.813  0.4557E+00  0.6004E+01
  11.823  0.4569E+00  0.6008E+01
  11.833  0.4581E+00  0.6013E+01
  11.843  0.4593E+00  0.6017E+01
  11.853  0.4604E+00  0.6022E+01
  11.863  0.4616E+00  0.6026E+01
  11.873  0.4628E+00  0.6031E+01
  11.883  0.4640E+00  0.6036E+01
  11.893  0.4652E+00  0.6040E+01
  11.903  0.4664E+00  0.6045E+01
  11.913  0.4676E+00  0.6050E+01
  11.923  0.4688E+00  0.6054E+01
  11.933  0.4701E+00  0.6059E+01
  11.943  0.4714E+00  0.6064E+01
  11.953  0.4727E+00  0.6069E+01
  11.963  0.4740E+00  0.6073E+01
  11.973  0.4754E+00  0.6078E+01
  11.983  0.4768E+00  0.6083E+01
  11.993  0.4783E+00  0.6088E+01
  12.003  0.4798E+00  0.6092E+01
  12.013  0.4813E+00  0.6097E+01
  12.023  0.4829E+00  0.6102E+01
  12.033  0.4845E+00  0.6107E+01
  12.043  0.4862E+00  0.6112E+01
  12.053  0.4880E+00  0.6117E+01
  12.063  0.4898E+00  0.6122E+01
  12.073  0.4917E+00  0.6126E+01
  12.083  0.4937E+00  0.6131E+01
  12.093  0.4957E+00  0.6136E+01
  12.103  0.4978E+00  0.6141E+01
  12.113  0.5000E+00  0.6146E+01
  12.123  0.5022E+00  0.6151E+01
  12.133  0.5046E+00  0.6156E+01
  12.143  0.5070E+00  0.6161E+01
  12.153  0.5094E+00  0.6167E+01
  12.163  0.5120E+00  0.6172E+01
  12.173  0.5146E+00  0.6177E+01
  12.183  0.5173E+00  0.6182E+01
  12.193  0.5201E+00  0.6187E+01
  12.203  0.5230E+00  0.6192E+01
  12.213  0.5260E+00  0.6198E+01
  12.223  0.5290E+00  0.6203E+01
  12.233  0.5321E+00  0.6208E+01
  12.243  0.5353E+00  0.6214E+01
  12.253  0.5386E+00  0.6219E+01
  12.263  0.5419E+00  0.6224E+01
  12.273  0.5453E+00  0.6230E+01
  12.283  0.5488E+00  0.6235E+01
  12.293  0.5523E+00  0.6241E+01
  12.303  0.5559E+00  0.6246E+01
  12.313  0.5595E+00  0.6252E+01
  12.323  0.5632E+00  0.6258E+01
  12.333  0.5670E+00  0.6263E+01
  12.343  0.5708E+00  0.6269E+01
  12.353  0.5747E+00  0.6275E+01
  12.363  0.5786E+00  0.6281E+01
  12.373  0.5825E+00  0.6286E+01
  12.383  0.5865E+00  0.6292E+01
  12.393  0.5905E+00  0.6298E+01
  12.403  0.5945E+00  0.6304E+01
  12.413  0.5986E+00  0.6310E+01
  12.423  0.6026E+00  0.6316E+01
  12.433  0.6067E+00  0.6322E+01
  12.443  0.6108E+00  0.6328E+01
  12.453  0.6149E+00  0.6335E+01
  12.463  0.6190E+00  0.6341E+01
  12.473  0.6231E+00  0.6347E+01
  12.483  0.6272E+00  0.6353E+01
  12.493  0.6312E+00  0.6360E+01
  12.503  0.6353E+00  0.6366E+01
  12.513  0.6393E+00  0.6372E+01
  12.523  0.6433E+00  0.6379E+01
  12.533  0.6473E+00  0.6385E+01
  12.543  0.6512E+00  0.6392E+01
  12.553  0.6551E+00  0.6398E+01
  12.563  0.6589E+00  0.6405E+01
  12.573  0.6627E+00  0.6411E+01
  12.583  0.6665E+00  0.6418E+01
  12.593  0.6702E+00  0.6425E+01
  12.603  0.6738E+00  0.6432E+01
  12.613  0.6774E+00  0.6438E+01
  12.623  0.6809E+00  0.6445E+01
  12.633  0.6843E+00  0.6452E+01
  12.643  0.6877E+00  0.6459E+01
  12.653  0.6910E+00  0.6466E+01
  12.663  0.6942E+00  0.6473E+01
  12.673  0.6973E+00  0.6480E+01
  12.683  0.7004E+00  0.6487E+01
  12.693  0.7034E+00  0.6494E+01
  12.703  0.7062E+00  0.6501E+01
  12.713  0.7090E+00  0.6508E+01
  12.723  0.7117E+00  0.6515E+01
  12.733  0.7144E+00  0.6522E+01
  12.743  0.7169E+00  0.6529E+01
  12.753  0.7193E+00  0.6536E+01
  12.763  0.7216E+00  0.6544E+01
  12.773  0.7239E+00  0.6551E+01
  12.783  0.7260E+00  0.6558E+01
  12.793  0.7280E+00  0.6565E+01
  12.803  0.7300E+00  0.6573E+01
  12.813  0.7318E+00  0.6580E+01
  12.823  0.7335E+00  0.6587E+01
  12.833  0.7351E+00  0.6595E+01
  12.843  0.7366E+00  0.6602E+01
  12.853  0.7380E+00  0.6610E+01
  12.863  0.7393E+00  0.6617E+01
  12.873  0.7405E+00  0.6624E+01
  12.883  0.7416E+00  0.6632E+01
  12.893  0.7426E+00  0.6639E+01
  12.903  0.7435E+00  0.6647E+01
  12.913  0.7443E+00  0.6654E+01
  12.923  0.7449E+00  0.6662E+01
  12.933  0.7455E+00  0.6669E+01
  12.943  0.7460E+00  0.6676E+01
  12.953  0.7463E+00  0.6684E+01
  12.963  0.7466E+00  0.6691E+01
  12.973  0.7467E+00  0.6699E+01
  12.983  0.7468E+00  0.6706E+01
  12.993  0.7467E+00  0.6714E+01
  13.003  0.7465E+00  0.6721E+01
  13.013  0.7463E+00  0.6729E+01
  13.023  0.7459E+00  0.6736E+01
  13.033  0.7454E+00  0.6744E+01
  13.043  0.7449E+00  0.6751E+01
  13.053  0.7442E+00  0.6758E+01
  13.063  0.7435E+00  0.6766E+01
  13.073  0.7426E+00  0.6773E+01
  13.083  0.7417E+00  0.6781E+01
  13.093  0.7407E+00  0.6788E+01
  13.103  0.7396E+00  0.6796E+01
  13.113  0.7384E+00  0.6803E+01
  13.123  0.7371E+00  0.6810E+01
  13.133  0.7357E+00  0.6818E+01
  13.143  0.7343E+00  0.6825E+01
  13.153  0.7328E+00  0.6832E+01
  13.163  0.7312E+00  0.6840E+01
  13.173  0.7295E+00  0.6847E+01
  13.183  0.7278E+00  0.6854E+01
  13.193  0.7260E+00  0.6861E+01
  13.203  0.7242E+00  0.6869E+01
  13.213  0.7223E+00  0.6876E+01
  13.223  0.7204E+00  0.6883E+01
  13.233  0.7184E+00  0.6890E+01
  13.243  0.7163E+00  0.6898E+01
  13.253  0.7143E+00  0.6905E+01
  13.263  0.7122E+00  0.6912E+01
  13.273  0.7100E+00  0.6919E+01
  13.283  0.7079E+00  0.6926E+01
  13.293  0.7057E+00  0.6933E+01
  13.303  0.7035E+00  0.6940E+01
  13.313  0.7013E+00  0.6947E+01
  13.323  0.6991E+00  0.6954E+01
  13.333  0.6969E+00  0.6961E+01
  13.343  0.6947E+00  0.6968E+01
  13.353  0.6925E+00  0.6975E+01
  13.363  0.6903E+00  0.6982E+01
  13.373  0.6881E+00  0.6989E+01
  13.383  0.6860E+00  0.6996E+01
  13.393  0.6839E+00  0.7002E+01
  13.403  0.6819E+00  0.7009E+01
  13.413  0.6799E+00  0.7016E+01
  13.423  0.6779E+00  0.7023E+01
  13.433  0.6760E+00  0.7030E+01
  13.443  0.6742E+00  0.7036E+01
  13.453  0.6724E+00  0.7043E+01
  13.463  0.6707E+00  0.7050E+01
  13.473  0.6691E+00  0.7056E+01
  13.483  0.6675E+00  0.7063E+01
  13.493  0.6661E+00  0.7070E+01
  13.503  0.6647E+00  0.7076E+01
  13.513  0.6634E+00  0.7083E+01
  13.523  0.6623E+00  0.7090E+01
  13.533  0.6612E+00  0.7096E+01
  13.543  0.6602E+00  0.7103E+01
  13.553  0.6594E+00  0.7109E+01
  13.563  0.6586E+00  0.7116E+01
  13.573  0.6580E+00  0.7123E+01
  13.583  0.6574E+00  0.7129E+01
  13.593  0.6570E+00  0.7136E+01
  13.603  0.6568E+00  0.7142E+01
  13.613  0.6566E+00  0.7149E+01
  13.623  0.6565E+00  0.7155E+01
  13.633  0.6566E+00  0.7162E+01
  13.643  0.6568E+00  0.7169E+01
  13.653  0.6571E+00  0.7175E+01
  13.663  0.6576E+00  0.7182E+01
  13.673  0.6581E+00  0.7188E+01
  13.683  0.6588E+00  0.7195E+01
  13.693  0.6596E+00  0.7201E+01
  13.703  0.6605E+00  0.7208E+01
  13.713  0.6615E+00  0.7215E+01
  13.723  0.6626E+00  0.7221E+01
  13.733  0.6638E+00  0.7228E+01
  13.743  0.6651E+00  0.7235E+01
  13.753  0.6665E+00  0.7241E+01
  13.763  0.6680E+00  0.7248E+01
  13.773  0.6696E+00  0.7255E+01
  13.783  0.6713E+00  0.7261E+01
  13.793  0.6730E+00  0.7268E+01
  13.803  0.6748E+00  0.7275E+01
  13.813  0.6767E+00  0.7282E+01
  13.823  0.6786E+00  0.7288E+01
  13.833  0.6805E+00  0.7295E+01
  13.843  0.6826E+00  0.7302E+01
  13.853  0.6846E+00  0.7309E+01
  13.863  0.6867E+00  0.7316E+01
  13.873  0.6888E+00  0.7323E+01
  13.883  0.6908E+00  0.7330E+01
  13.893  0.6930E+00  0.7336E+01
  13.903  0.6950E+00  0.7343E+01
  13.913  0.6971E+00  0.7350E+01
  13.923  0.6992E+00  0.7357E+01
  13.933  0.7012E+00  0.7364E+01
  13.943  0.7032E+00  0.7371E+01
  13.953  0.7052E+00  0.7378E+01
  13.963  0.7071E+00  0.7386E+01
  13.973  0.7089E+00  0.7393E+01
  13.983  0.7107E+00  0.7400E+01
  13.993  0.7124E+00  0.7407E+01
  14.003  0.7140E+00  0.7414E+01
  14.013  0.7155E+00  0.7421E+01
  14.023  0.7169E+00  0.7428E+01
  14.033  0.7182E+00  0.7436E+01
  14.043  0.7194E+00  0.7443E+01
  14.053  0.7204E+00  0.7450E+01
  14.063  0.7214E+00  0.7457E+01
  14.073  0.7222E+00  0.7464E+01
  14.083  0.7228E+00  0.7472E+01
  14.093  0.7233E+00  0.7479E+01
  14.103  0.7237E+00  0.7486E+01
  14.113  0.7239E+00  0.7493E+01
  14.123  0.7239E+00  0.7501E+01
  14.133  0.7238E+00  0.7508E+01
  14.143  0.7235E+00  0.7515E+01
  14.153  0.7231E+00  0.7522E+01
  14.163  0.7224E+00  0.7529E+01
  14.173  0.7216E+00  0.7537E+01
  14.183  0.7206E+00  0.7544E+01
  14.193  0.7194E+00  0.7551E+01
  14.203  0.7181E+00  0.7558E+01
  14.213  0.7165E+00  0.7565E+01
  14.223  0.7148E+00  0.7573E+01
  14.233  0.7128E+00  0.7580E+01
  14.243  0.7107E+00  0.7587E+01
  14.253  0.7084E+00  0.7594E+01
  14.263  0.7059E+00  0.7601E+01
  14.273  0.7032E+00  0.7608E+01
  14.283  0.7004E+00  0.7615E+01
  14.293  0.6973E+00  0.7622E+01
  14.303  0.6941E+00  0.7629E+01
  14.313  0.6906E+00  0.7636E+01
  14.323  0.6870E+00  0.7643E+01
  14.333  0.6833E+00  0.7650E+01
  14.343  0.6793E+00  0.7656E+01
  14.353  0.6752E+00  0.7663E+01
  14.363  0.6710E+00  0.7670E+01
  14.373  0.6665E+00  0.7676E+01
  14.383  0.6620E+00  0.7683E+01
  14.393  0.6572E+00  0.7690E+01
  14.403  0.6524E+00  0.7696E+01
  14.413  0.6474E+00  0.7703E+01
  14.423  0.6422E+00  0.7709E+01
  14.433  0.6370E+00  0.7715E+01
  14.443  0.6316E+00  0.7722E+01
  14.453  0.6261E+00  0.7728E+01
  14.463  0.6204E+00  0.7734E+01
  14.473  0.6147E+00  0.7740E+01
  14.483  0.6089E+00  0.7746E+01
  14.493  0.6030E+00  0.7752E+01
  14.503  0.5971E+00  0.7758E+01
  14.513  0.5910E+00  0.7764E+01
  14.523  0.5849E+00  0.7770E+01
  14.533  0.5787E+00  0.7776E+01
  14.543  0.5725E+00  0.7782E+01
  14.553  0.5662E+00  0.7787E+01
  14.563  0.5599E+00  0.7793E+01
  14.573  0.5535E+00  0.7798E+01
  14.583  0.5471E+00  0.7804E+01
  14.593  0.5408E+00  0.7809E+01
  14.603  0.5344E+00  0.7815E+01
  14.613  0.5280E+00  0.7820E+01
  14.623  0.5216E+00  0.7825E+01
  14.633  0.5152E+00  0.7830E+01
  14.643  0.5088E+00  0.7835E+01
  14.653  0.5025E+00  0.7840E+01
  14.663  0.4961E+00  0.7845E+01
  14.673  0.4899E+00  0.7850E+01
  14.683  0.4836E+00  0.7855E+01
  14.693  0.4775E+00  0.7860E+01
  14.703  0.4714E+00  0.7865E+01
  14.713  0.4653E+00  0.7869E+01
  14.723  0.4593E+00  0.7874E+01
  14.733  0.4534E+00  0.7878E+01
  14.743  0.4476E+00  0.7883E+01
  14.753  0.4419E+00  0.7887E+01
  14.763  0.4362E+00  0.7892E+01
  14.773  0.4307E+00  0.7896E+01
  14.783  0.4252E+00  0.7900E+01
  14.793  0.4199E+00  0.7904E+01
  14.803  0.4146E+00  0.7909E+01
  14.813  0.4095E+00  0.7913E+01
  14.823  0.4045E+00  0.7917E+01
  14.833  0.3996E+00  0.7921E+01
  14.843  0.3949E+00  0.7925E+01
  14.853  0.3903E+00  0.7929E+01
  14.863  0.3858E+00  0.7932E+01
  14.873  0.3814E+00  0.7936E+01
  14.883  0.3772E+00  0.7940E+01
  14.893  0.3731E+00  0.7944E+01
  14.903  0.3692E+00  0.7947E+01
  14.913  0.3654E+00  0.7951E+01
  14.923  0.3617E+00  0.7955E+01
  14.933  0.3582E+00  0.7958E+01
  14.943  0.3548E+00  0.7962E+01
  14.953  0.3516E+00  0.7965E+01
  14.963  0.3486E+00  0.7969E+01
  14.973  0.3456E+00  0.7972E+01
  14.983  0.3429E+00  0.7976E+01
  14.993  0.3402E+00  0.7979E+01
  15.003  0.3378E+00  0.7983E+01
  15.013  0.3354E+00  0.7986E+01
  15.023  0.3333E+00  0.7989E+01
  15.033  0.3312E+00  0.7993E+01
  15.043  0.3293E+00  0.7996E+01
  15.053  0.3276E+00  0.7999E+01
  15.063  0.3259E+00  0.8002E+01
  15.073  0.3245E+00  0.8006E+01
  15.083  0.3231E+00  0.8009E+01
  15.093  0.3219E+00  0.8012E+01
  15.103  0.3208E+00  0.8015E+01
  15.113  0.3199E+00  0.8018E+01
  15.123  0.3191E+00  0.8022E+01
  15.133  0.3183E+00  0.8025E+01
  15.143  0.3178E+00  0.8028E+01
  15.153  0.3173E+00  0.8031E+01
  15.163  0.3169E+00  0.8034E+01
  15.173  0.3167E+00  0.8038E+01
  15.183  0.3165E+00  0.8041E+01
  15.193  0.3165E+00  0.8044E+01
  15.203  0.3165E+00  0.8047E+01
  15.213  0.3167E+00  0.8050E+01
  15.223  0.3169E+00  0.8053E+01
  15.233  0.3172E+00  0.8057E+01
  15.243  0.3176E+00  0.8060E+01
  15.253  0.3180E+00  0.8063E+01
  15.263  0.3186E+00  0.8066E+01
  15.273  0.3192E+00  0.8069E+01
  15.283  0.3198E+00  0.8072E+01
  15.293  0.3206E+00  0.8076E+01
  15.303  0.3213E+00  0.8079E+01
  15.313  0.3221E+00  0.8082E+01
  15.323  0.3230E+00  0.8085E+01
  15.333  0.3239E+00  0.8089E+01
  15.343  0.3248E+00  0.8092E+01
  15.353  0.3258E+00  0.8095E+01
  15.363  0.3268E+00  0.8098E+01
  15.373  0.3278E+00  0.8102E+01
  15.383  0.3288E+00  0.8105E+01
  15.393  0.3299E+00  0.8108E+01
  15.403  0.3309E+00  0.8112E+01
  15.413  0.3319E+00  0.8115E+01
  15.423  0.3330E+00  0.8118E+01
  15.433  0.3340E+00  0.8121E+01
  15.443  0.3351E+00  0.8125E+01
  15.453  0.3361E+00  0.8128E+01
  15.463  0.3371E+00  0.8132E+01
  15.473  0.3381E+00  0.8135E+01
  15.483  0.3391E+00  0.8138E+01
  15.493  0.3401E+00  0.8142E+01
  15.503  0.3410E+00  0.8145E+01
  15.513  0.3419E+00  0.8149E+01
  15.523  0.3428E+00  0.8152E+01
  15.533  0.3436E+00  0.8155E+01
  15.543  0.3444E+00  0.8159E+01
  15.553  0.3452E+00  0.8162E+01
  15.563  0.3459E+00  0.8166E+01
  15.573  0.3466E+00  0.8169E+01
  15.583  0.3473E+00  0.8173E+01
  15.593  0.3479E+00  0.8176E+01
  15.603  0.3485E+00  0.8180E+01
  15.613  0.3490E+00  0.8183E+01
  15.623  0.3495E+00  0.8187E+01
  15.633  0.3499E+00  0.8190E+01
  15.643  0.3503E+00  0.8194E+01
  15.653  0.3507E+00  0.8197E+01
  15.663  0.3510E+00  0.8201E+01
  15.673  0.3513E+00  0.8204E+01
  15.683  0.3515E+00  0.8208E+01
  15.693  0.3517E+00  0.8211E+01
  15.703  0.3518E+00  0.8215E+01
  15.713  0.3519E+00  0.8218E+01
  15.723  0.3520E+00  0.8222E+01
  15.733  0.3520E+00  0.8225E+01
  15.743  0.3520E+00  0.8229E+01
  15.753  0.3520E+00  0.8232E+01
  15.763  0.3519E+00  0.8236E+01
  15.773  0.3518E+00  0.8239E+01
  15.783  0.3516E+00  0.8243E+01
  15.793  0.3515E+00  0.8246E+01
  15.803  0.3513E+00  0.8250E+01
  15.813  0.3511E+00  0.8253E+01
  15.823  0.3509E+00  0.8257E+01
  15.833  0.3506E+00  0.8260E+01
  15.843  0.3504E+00  0.8264E+01
  15.853  0.3501E+00  0.8267E+01
  15.863  0.3498E+00  0.8271E+01
  15.873  0.3495E+00  0.8274E+01
  15.883  0.3493E+00  0.8278E+01
  15.893  0.3490E+00  0.8281E+01
  15.903  0.3487E+00  0.8285E+01
  15.913  0.3484E+00  0.8288E+01
  15.923  0.3481E+00  0.8292E+01
  15.933  0.3478E+00  0.8295E+01
  15.943  0.3475E+00  0.8299E+01
  15.953  0.3472E+00  0.8302E+01
  15.963  0.3470E+00  0.8306E+01
  15.973  0.3467E+00  0.8309E+01
  15.983  0.3465E+00  0.8313E+01
  15.993  0.3462E+00  0.8316E+01
  16.003  0.3460E+00  0.8320E+01
  16.013  0.3459E+00  0.8323E+01
  16.023  0.3457E+00  0.8327E+01
  16.033  0.3455E+00  0.8330E+01
  16.043  0.3454E+00  0.8333E+01
  16.053  0.3453E+00  0.8337E+01
  16.063  0.3452E+00  0.8340E+01
  16.073  0.3452E+00  0.8344E+01
  16.083  0.3452E+00  0.8347E+01
  16.093  0.3452E+00  0.8351E+01
  16.103  0.3452E+00  0.8354E+01
  16.113  0.3453E+00  0.8358E+01
  16.123  0.3453E+00  0.8361E+01
  16.133  0.3455E+00  0.8365E+01
  16.143  0.3456E+00  0.8368E+01
  16.153  0.3458E+00  0.8371E+01
  16.163  0.3459E+00  0.8375E+01
  16.173  0.3462E+00  0.8378E+01
  16.183  0.3464E+00  0.8382E+01
  16.193  0.3467E+00  0.8385E+01
  16.203  0.3470E+00  0.8389E+01
  16.213  0.3473E+00  0.8392E+01
  16.223  0.3476E+00  0.8396E+01
  16.233  0.3480E+00  0.8399E+01
  16.243  0.3484E+00  0.8403E+01
  16.253  0.3488E+00  0.8406E+01
  16.263  0.3493E+00  0.8410E+01
  16.273  0.3497E+00  0.8413E+01
  16.283  0.3502E+00  0.8417E+01
  16.293  0.3507E+00  0.8420E+01
  16.303  0.3513E+00  0.8424E+01
  16.313  0.3518E+00  0.8427E+01
  16.323  0.3524E+00  0.8431E+01
  16.333  0.3530E+00  0.8434E+01
  16.343  0.3536E+00  0.8438E+01
  16.353  0.3543E+00  0.8441E+01
  16.363  0.3549E+00  0.8445E+01
  16.373  0.3556E+00  0.8448E+01
  16.383  0.3563E+00  0.8452E+01
  16.393  0.3570E+00  0.8456E+01
  16.403  0.3578E+00  0.8459E+01
  16.413  0.3585E+00  0.8463E+01
  16.423  0.3593E+00  0.8466E+01
  16.433  0.3601E+00  0.8470E+01
  16.443  0.3610E+00  0.8474E+01
  16.453  0.3618E+00  0.8477E+01
  16.463  0.3627E+00  0.8481E+01
  16.473  0.3636E+00  0.8484E+01
  16.483  0.3646E+00  0.8488E+01
  16.493  0.3655E+00  0.8492E+01
  16.503  0.3665E+00  0.8495E+01
  16.513  0.3675E+00  0.8499E+01
  16.523  0.3686E+00  0.8503E+01
  16.533  0.3697E+00  0.8506E+01
  16.543  0.3708E+00  0.8510E+01
  16.553  0.3719E+00  0.8514E+01
  16.563  0.3731E+00  0.8518E+01
  16.573  0.3744E+00  0.8521E+01
  16.583  0.3756E+00  0.8525E+01
  16.593  0.3769E+00  0.8529E+01
  16.603  0.3783E+00  0.8533E+01
  16.613  0.3797E+00  0.8536E+01
  16.623  0.3811E+00  0.8540E+01
  16.633  0.3826E+00  0.8544E+01
  16.643  0.3841E+00  0.8548E+01
  16.653  0.3857E+00  0.8552E+01
  16.663  0.3873E+00  0.8556E+01
  16.673  0.3890E+00  0.8560E+01
  16.683  0.3907E+00  0.8563E+01
  16.693  0.3925E+00  0.8567E+01
  16.703  0.3943E+00  0.8571E+01
  16.713  0.3962E+00  0.8575E+01
  16.723  0.3981E+00  0.8579E+01
  16.733  0.4001E+00  0.8583E+01
  16.743  0.4021E+00  0.8587E+01
  16.753  0.4042E+00  0.8591E+01
  16.763  0.4063E+00  0.8595E+01
  16.773  0.4085E+00  0.8600E+01
  16.783  0.4108E+00  0.8604E+01
  16.793  0.4130E+00  0.8608E+01
  16.803  0.4154E+00  0.8612E+01
  16.813  0.4177E+00  0.8616E+01
  16.823  0.4202E+00  0.8620E+01
  16.833  0.4226E+00  0.8625E+01
  16.843  0.4251E+00  0.8629E+01
  16.853  0.4277E+00  0.8633E+01
  16.863  0.4302E+00  0.8637E+01
  16.873  0.4328E+00  0.8642E+01
  16.883  0.4355E+00  0.8646E+01
  16.893  0.4381E+00  0.8650E+01
  16.903  0.4408E+00  0.8655E+01
  16.913  0.4435E+00  0.8659E+01
  16.923  0.4462E+00  0.8664E+01
  16.933  0.4489E+00  0.8668E+01
  16.943  0.4516E+00  0.8673E+01
  16.953  0.4544E+00  0.8677E+01
  16.963  0.4571E+00  0.8682E+01
  16.973  0.4598E+00  0.8686E+01
  16.983  0.4625E+00  0.8691E+01
  16.993  0.4652E+00  0.8696E+01
  17.003  0.4679E+00  0.8700E+01
  17.013  0.4705E+00  0.8705E+01
  17.023  0.4731E+00  0.8710E+01
  17.033  0.4757E+00  0.8715E+01
  17.043  0.4782E+00  0.8719E+01
  17.053  0.4807E+00  0.8724E+01
  17.063  0.4831E+00  0.8729E+01
  17.073  0.4855E+00  0.8734E+01
  17.083  0.4878E+00  0.8739E+01
  17.093  0.4900E+00  0.8744E+01
  17.103  0.4922E+00  0.8749E+01
  17.113  0.4942E+00  0.8753E+01
  17.123  0.4962E+00  0.8758E+01
  17.133  0.4981E+00  0.8763E+01
  17.143  0.4999E+00  0.8768E+01
  17.153  0.5016E+00  0.8773E+01
  17.163  0.5032E+00  0.8778E+01
  17.173  0.5047E+00  0.8784E+01
  17.183  0.5060E+00  0.8789E+01
  17.193  0.5073E+00  0.8794E+01
  17.203  0.5084E+00  0.8799E+01
  17.213  0.5094E+00  0.8804E+01
  17.223  0.5102E+00  0.8809E+01
  17.233  0.5110E+00  0.8814E+01
  17.243  0.5116E+00  0.8819E+01
  17.253  0.5120E+00  0.8824E+01
  17.263  0.5123E+00  0.8829E+01
  17.273  0.5125E+00  0.8835E+01
  17.283  0.5125E+00  0.8840E+01
  17.293  0.5124E+00  0.8845E+01
  17.303  0.5121E+00  0.8850E+01
  17.313  0.5117E+00  0.8855E+01
  17.323  0.5112E+00  0.8860E+01
  17.333  0.5104E+00  0.8865E+01
  17.343  0.5096E+00  0.8870E+01
  17.353  0.5086E+00  0.8875E+01
  17.363  0.5074E+00  0.8880E+01
  17.373  0.5061E+00  0.8886E+01
  17.383  0.5047E+00  0.8891E+01
  17.393  0.5031E+00  0.8896E+01
  17.403  0.5014E+00  0.8901E+01
  17.413  0.4995E+00  0.8906E+01
  17.423  0.4975E+00  0.8911E+01
  17.433  0.4954E+00  0.8916E+01
  17.443  0.4931E+00  0.8920E+01
  17.453  0.4907E+00  0.8925E+01
  17.463  0.4883E+00  0.8930E+01
  17.473  0.4856E+00  0.8935E+01
  17.483  0.4829E+00  0.8940E+01
  17.493  0.4801E+00  0.8945E+01
  17.503  0.4772E+00  0.8950E+01
  17.513  0.4742E+00  0.8954E+01
  17.523  0.4710E+00  0.8959E+01
  17.533  0.4679E+00  0.8964E+01
  17.543  0.4646E+00  0.8968E+01
  17.553  0.4613E+00  0.8973E+01
  17.563  0.4578E+00  0.8978E+01
  17.573  0.4544E+00  0.8982E+01
  17.583  0.4509E+00  0.8987E+01
  17.593  0.4473E+00  0.8991E+01
  17.603  0.4437E+00  0.8995E+01
  17.613  0.4401E+00  0.9000E+01
  17.623  0.4364E+00  0.9004E+01
  17.633  0.4328E+00  0.9009E+01
  17.643  0.4291E+00  0.9013E+01
  17.653  0.4254E+00  0.9017E+01
  17.663  0.4217E+00  0.9021E+01
  17.673  0.4181E+00  0.9026E+01
  17.683  0.4144E+00  0.9030E+01
  17.693  0.4108E+00  0.9034E+01
  17.703  0.4072E+00  0.9038E+01
  17.713  0.4036E+00  0.9042E+01
  17.723  0.4001E+00  0.9046E+01
  17.733  0.3966E+00  0.9050E+01
  17.743  0.3932E+00  0.9054E+01
  17.753  0.3898E+00  0.9058E+01
  17.763  0.3865E+00  0.9062E+01
  17.773  0.3833E+00  0.9065E+01
  17.783  0.3801E+00  0.9069E+01
  17.793  0.3771E+00  0.9073E+01
  17.803  0.3741E+00  0.9077E+01
  17.813  0.3712E+00  0.9080E+01
  17.823  0.3684E+00  0.9084E+01
  17.833  0.3657E+00  0.9088E+01
  17.843  0.3631E+00  0.9091E+01
  17.853  0.3605E+00  0.9095E+01
  17.863  0.3581E+00  0.9099E+01
  17.873  0.3559E+00  0.9102E+01
  17.883  0.3537E+00  0.9106E+01
  17.893  0.3516E+00  0.9109E+01
  17.903  0.3496E+00  0.9113E+01
  17.913  0.3478E+00  0.9116E+01
  17.923  0.3461E+00  0.9120E+01
  17.933  0.3445E+00  0.9123E+01
  17.943  0.3430E+00  0.9126E+01
  17.953  0.3416E+00  0.9130E+01
  17.963  0.3403E+00  0.9133E+01
  17.973  0.3392E+00  0.9137E+01
  17.983  0.3381E+00  0.9140E+01
  17.993  0.3372E+00  0.9143E+01
  18.003  0.3364E+00  0.9147E+01
  18.013  0.3357E+00  0.9150E+01
  18.023  0.3351E+00  0.9154E+01
  18.033  0.3346E+00  0.9157E+01
  18.043  0.3342E+00  0.9160E+01
  18.053  0.3339E+00  0.9164E+01
  18.063  0.3337E+00  0.9167E+01
  18.073  0.3336E+00  0.9170E+01
  18.083  0.3336E+00  0.9174E+01
  18.093  0.3336E+00  0.9177E+01
  18.103  0.3337E+00  0.9180E+01
  18.113  0.3339E+00  0.9184E+01
  18.123  0.3342E+00  0.9187E+01
  18.133  0.3345E+00  0.9190E+01
  18.143  0.3349E+00  0.9194E+01
  18.153  0.3354E+00  0.9197E+01
  18.163  0.3359E+00  0.9200E+01
  18.173  0.3364E+00  0.9204E+01
  18.183  0.3370E+00  0.9207E+01
  18.193  0.3376E+00  0.9210E+01
  18.203  0.3382E+00  0.9214E+01
  18.213  0.3388E+00  0.9217E+01
  18.223  0.3395E+00  0.9221E+01
  18.233  0.3402E+00  0.9224E+01
  18.243  0.3409E+00  0.9227E+01
  18.253  0.3415E+00  0.9231E+01
  18.263  0.3422E+00  0.9234E+01
  18.273  0.3429E+00  0.9238E+01
  18.283  0.3435E+00  0.9241E+01
  18.293  0.3442E+00  0.9245E+01
  18.303  0.3448E+00  0.9248E+01
  18.313  0.3454E+00  0.9251E+01
  18.323  0.3459E+00  0.9255E+01
  18.333  0.3464E+00  0.9258E+01
  18.343  0.3469E+00  0.9262E+01
  18.353  0.3473E+00  0.9265E+01
  18.363  0.3477E+00  0.9269E+01
  18.373  0.3481E+00  0.9272E+01
  18.383  0.3483E+00  0.9276E+01
  18.393  0.3486E+00  0.9279E+01
  18.403  0.3487E+00  0.9283E+01
  18.413  0.3488E+00  0.9286E+01
  18.423  0.3489E+00  0.9290E+01
  18.433  0.3489E+00  0.9293E+01
  18.443  0.3488E+00  0.9297E+01
  18.453  0.3486E+00  0.9300E+01
  18.463  0.3484E+00  0.9304E+01
  18.473  0.3481E+00  0.9307E+01
  18.483  0.3478E+00  0.9311E+01
  18.493  0.3474E+00  0.9314E+01
  18.503  0.3469E+00  0.9318E+01
  18.513  0.3464E+00  0.9321E+01
  18.523  0.3458E+00  0.9324E+01
  18.533  0.3451E+00  0.9328E+01
  18.543  0.3444E+00  0.9331E+01
  18.553  0.3436E+00  0.9335E+01
  18.563  0.3428E+00  0.9338E+01
  18.573  0.3419E+00  0.9342E+01
  18.583  0.3410E+00  0.9345E+01
  18.593  0.3400E+00  0.9348E+01
  18.603  0.3390E+00  0.9352E+01
  18.613  0.3379E+00  0.9355E+01
  18.623  0.3368E+00  0.9359E+01
  18.633  0.3357E+00  0.9362E+01
  18.643  0.3345E+00  0.9365E+01
  18.653  0.3333E+00  0.9369E+01
  18.663  0.3320E+00  0.9372E+01
  18.673  0.3308E+00  0.9375E+01
  18.683  0.3295E+00  0.9379E+01
  18.693  0.3282E+00  0.9382E+01
  18.703  0.3269E+00  0.9385E+01
  18.713  0.3256E+00  0.9388E+01
  18.723  0.3243E+00  0.9392E+01
  18.733  0.3230E+00  0.9395E+01
  18.743  0.3217E+00  0.9398E+01
  18.753  0.3205E+00  0.9401E+01
  18.763  0.3192E+00  0.9404E+01
  18.773  0.3179E+00  0.9408E+01
  18.783  0.3167E+00  0.9411E+01
  18.793  0.3155E+00  0.9414E+01
  18.803  0.3143E+00  0.9417E+01
  18.813  0.3131E+00  0.9420E+01
  18.823  0.3120E+00  0.9423E+01
  18.833  0.3109E+00  0.9426E+01
  18.843  0.3098E+00  0.9430E+01
  18.853  0.3088E+00  0.9433E+01
  18.863  0.3078E+00  0.9436E+01
  18.873  0.3068E+00  0.9439E+01
  18.883  0.3059E+00  0.9442E+01
  18.893  0.3051E+00  0.9445E+01
  18.903  0.3042E+00  0.9448E+01
  18.913  0.3035E+00  0.9451E+01
  18.923  0.3027E+00  0.9454E+01
  18.933  0.3021E+00  0.9457E+01
  18.943  0.3014E+00  0.9460E+01
  18.953  0.3009E+00  0.9463E+01
  18.963  0.3003E+00  0.9466E+01
  18.973  0.2998E+00  0.9469E+01
  18.983  0.2994E+00  0.9472E+01
  18.993  0.2990E+00  0.9475E+01
  19.003  0.2987E+00  0.9478E+01
  19.013  0.2984E+00  0.9481E+01
  19.023  0.2981E+00  0.9484E+01
  19.033  0.2979E+00  0.9487E+01
  19.043  0.2977E+00  0.9490E+01
  19.053  0.2975E+00  0.9493E+01
  19.063  0.2974E+00  0.9496E+01
  19.073  0.2973E+00  0.9499E+01
  19.083  0.2973E+00  0.9502E+01
  19.093  0.2972E+00  0.9505E+01
  19.103  0.2972E+00  0.9508E+01
  19.113  0.2973E+00  0.9511E+01
  19.123  0.2973E+00  0.9514E+01
  19.133  0.2973E+00  0.9517E+01
  19.143  0.2974E+00  0.9520E+01
  19.153  0.2975E+00  0.9523E+01
  19.163  0.2976E+00  0.9526E+01
  19.173  0.2977E+00  0.9529E+01
  19.183  0.2978E+00  0.9532E+01
  19.193  0.2978E+00  0.9535E+01
  19.203  0.2979E+00  0.9538E+01
  19.213  0.2980E+00  0.9541E+01
  19.223  0.2981E+00  0.9543E+01
  19.233  0.2981E+00  0.9546E+01
  19.243  0.2982E+00  0.9549E+01
  19.253  0.2982E+00  0.9552E+01
  19.263  0.2982E+00  0.9555E+01
  19.273  0.2982E+00  0.9558E+01
  19.283  0.2981E+00  0.9561E+01
  19.293  0.2980E+00  0.9564E+01
  19.303  0.2979E+00  0.9567E+01
  19.313  0.2978E+00  0.9570E+01
  19.323  0.2976E+00  0.9573E+01
  19.333  0.2974E+00  0.9576E+01
  19.343  0.2971E+00  0.9579E+01
  19.353  0.2968E+00  0.9582E+01
  19.363  0.2965E+00  0.9585E+01
  19.373  0.2961E+00  0.9588E+01
  19.383  0.2957E+00  0.9591E+01
  19.393  0.2952E+00  0.9594E+01
  19.403  0.2947E+00  0.9597E+01
  19.413  0.2941E+00  0.9600E+01
  19.423  0.2935E+00  0.9603E+01
  19.433  0.2929E+00  0.9606E+01
  19.443  0.2922E+00  0.9609E+01
  19.453  0.2914E+00  0.9612E+01
  19.463  0.2906E+00  0.9615E+01
  19.473  0.2898E+00  0.9617E+01
  19.483  0.2889E+00  0.9620E+01
  19.493  0.2880E+00  0.9623E+01
  19.503  0.2871E+00  0.9626E+01
  19.513  0.2861E+00  0.9629E+01
  19.523  0.2850E+00  0.9632E+01
  19.533  0.2839E+00  0.9635E+01
  19.543  0.2828E+00  0.9637E+01
  19.553  0.2817E+00  0.9640E+01
  19.563  0.2805E+00  0.9643E+01
  19.573  0.2793E+00  0.9646E+01
  19.583  0.2780E+00  0.9649E+01
  19.593  0.2768E+00  0.9651E+01
  19.603  0.2755E+00  0.9654E+01
  19.613  0.2741E+00  0.9657E+01
  19.623  0.2728E+00  0.9660E+01
  19.633  0.2715E+00  0.9662E+01
  19.643  0.2701E+00  0.9665E+01
  19.653  0.2687E+00  0.9668E+01
  19.663  0.2673E+00  0.9670E+01
  19.673  0.2660E+00  0.9673E+01
  19.683  0.2646E+00  0.9676E+01
  19.693  0.2632E+00  0.9678E+01
  19.703  0.2618E+00  0.9681E+01
  19.713  0.2604E+00  0.9684E+01
  19.723  0.2591E+00  0.9686E+01
  19.733  0.2577E+00  0.9689E+01
  19.743  0.2564E+00  0.9691E+01
  19.753  0.2551E+00  0.9694E+01
  19.763  0.2538E+00  0.9696E+01
  19.773  0.2525E+00  0.9699E+01
  19.783  0.2513E+00  0.9701E+01
  19.793  0.2501E+00  0.9704E+01
  19.803  0.2489E+00  0.9706E+01
  19.813  0.2478E+00  0.9709E+01
  19.823  0.2467E+00  0.9711E+01
  19.833  0.2457E+00  0.9714E+01
  19.843  0.2447E+00  0.9716E+01
  19.853  0.2437E+00  0.9719E+01
  19.863  0.2429E+00  0.9721E+01
  19.873  0.2420E+00  0.9724E+01
  19.883  0.2413E+00  0.9726E+01
  19.893  0.2406E+00  0.9728E+01
  19.903  0.2399E+00  0.9731E+01
  19.913  0.2394E+00  0.9733E+01
  19.923  0.2388E+00  0.9736E+01
  19.933  0.2384E+00  0.9738E+01
  19.943  0.2381E+00  0.9740E+01
  19.953  0.2378E+00  0.9743E+01
  19.963  0.2376E+00  0.9745E+01
  19.973  0.2374E+00  0.9747E+01
  19.983  0.2374E+00  0.9750E+01
  19.993  0.2374E+00  0.9752E+01
  20.003  0.2375E+00  0.9755E+01
  20.013  0.2377E+00  0.9757E+01
  20.023  0.2380E+00  0.9759E+01
  20.033  0.2384E+00  0.9762E+01
  20.043  0.2388E+00  0.9764E+01
  20.053  0.2394E+00  0.9766E+01
  20.063  0.2400E+00  0.9769E+01
  20.073  0.2407E+00  0.9771E+01
  20.083  0.2415E+00  0.9774E+01
  20.093  0.2424E+00  0.9776E+01
  20.103  0.2434E+00  0.9779E+01
  20.113  0.2445E+00  0.9781E+01
  20.123  0.2457E+00  0.9783E+01
  20.133  0.2469E+00  0.9786E+01
  20.143  0.2483E+00  0.9788E+01
  20.153  0.2497E+00  0.9791E+01
  20.163  0.2512E+00  0.9793E+01
  20.173  0.2528E+00  0.9796E+01
  20.183  0.2544E+00  0.9799E+01
  20.193  0.2562E+00  0.9801E+01
  20.203  0.2580E+00  0.9804E+01
  20.213  0.2599E+00  0.9806E+01
  20.223  0.2619E+00  0.9809E+01
  20.233  0.2640E+00  0.9812E+01
  20.243  0.2661E+00  0.9814E+01
  20.253  0.2683E+00  0.9817E+01
  20.263  0.2705E+00  0.9820E+01
  20.273  0.2728E+00  0.9822E+01
  20.283  0.2752E+00  0.9825E+01
  20.293  0.2777E+00  0.9828E+01
  20.303  0.2801E+00  0.9831E+01
  20.313  0.2827E+00  0.9833E+01
  20.323  0.2853E+00  0.9836E+01
  20.333  0.2879E+00  0.9839E+01
  20.343  0.2906E+00  0.9842E+01
  20.353  0.2933E+00  0.9845E+01
  20.363  0.2960E+00  0.9848E+01
  20.373  0.2988E+00  0.9851E+01
  20.383  0.3016E+00  0.9854E+01
  20.393  0.3045E+00  0.9857E+01
  20.403  0.3073E+00  0.9860E+01
  20.413  0.3102E+00  0.9863E+01
  20.423  0.3131E+00  0.9866E+01
  20.433  0.3159E+00  0.9869E+01
  20.443  0.3188E+00  0.9873E+01
  20.453  0.3217E+00  0.9876E+01
  20.463  0.3246E+00  0.9879E+01
  20.473  0.3275E+00  0.9882E+01
  20.483  0.3304E+00  0.9886E+01
  20.493  0.3333E+00  0.9889E+01
  20.503  0.3361E+00  0.9892E+01
  20.513  0.3389E+00  0.9896E+01
  20.523  0.3418E+00  0.9899E+01
  20.533  0.3445E+00  0.9903E+01
  20.543  0.3473E+00  0.9906E+01
  20.553  0.3500E+00  0.9910E+01
  20.563  0.3527E+00  0.9913E+01
  20.573  0.3554E+00  0.9917E+01
  20.583  0.3580E+00  0.9920E+01
  20.593  0.3605E+00  0.9924E+01
  20.603  0.3631E+00  0.9928E+01
  20.613  0.3655E+00  0.9931E+01
  20.623  0.3680E+00  0.9935E+01
  20.633  0.3704E+00  0.9939E+01
  20.643  0.3727E+00  0.9942E+01
  20.653  0.3750E+00  0.9946E+01
  20.663  0.3772E+00  0.9950E+01
  20.673  0.3793E+00  0.9954E+01
  20.683  0.3814E+00  0.9957E+01
  20.693  0.3835E+00  0.9961E+01
  20.703  0.3855E+00  0.9965E+01
  20.713  0.3874E+00  0.9969E+01
  20.723  0.3893E+00  0.9973E+01
  20.733  0.3911E+00  0.9977E+01
  20.743  0.3928E+00  0.9981E+01
  20.753  0.3945E+00  0.9985E+01
  20.763  0.3961E+00  0.9989E+01
  20.773  0.3977E+00  0.9993E+01
  20.783  0.3992E+00  0.9997E+01
  20.793  0.4006E+00  0.1000E+02
  20.803  0.4020E+00  0.1000E+02
  20.813  0.4034E+00  0.1001E+02
  20.823  0.4046E+00  0.1001E+02
  20.833  0.4059E+00  0.1002E+02
  20.843  0.4070E+00  0.1002E+02
  20.853  0.4082E+00  0.1002E+02
  20.863  0.4092E+00  0.1003E+02
  20.873  0.4103E+00  0.1003E+02
  20.883  0.4112E+00  0.1004E+02
  20.893  0.4122E+00  0.1004E+02
  20.903  0.4130E+00  0.1005E+02
  20.913  0.4139E+00  0.1005E+02
  20.923  0.4147E+00  0.1005E+02
  20.933  0.4155E+00  0.1006E+02
  20.943  0.4162E+00  0.1006E+02
  20.953  0.4169E+00  0.1007E+02
  20.963  0.4176E+00  0.1007E+02
  20.973  0.4182E+00  0.1007E+02
  20.983  0.4189E+00  0.1008E+02
  20.993  0.4195E+00  0.1008E+02
  21.003  0.4200E+00  0.1009E+02
  21.013  0.4206E+00  0.1009E+02
  21.023  0.4211E+00  0.1010E+02
  21.033  0.4216E+00  0.1010E+02
  21.043  0.4222E+00  0.1010E+02
  21.053  0.4227E+00  0.1011E+02
  21.063  0.4231E+00  0.1011E+02
  21.073  0.4236E+00  0.1012E+02
  21.083  0.4241E+00  0.1012E+02
  21.093  0.4246E+00  0.1013E+02
  21.103  0.4250E+00  0.1013E+02
  21.113  0.4255E+00  0.1013E+02
  21.123  0.4260E+00  0.1014E+02
  21.133  0.4265E+00  0.1014E+02
  21.143  0.4269E+00  0.1015E+02
  21.153  0.4274E+00  0.1015E+02
  21.163  0.4279E+00  0.1016E+02
  21.173  0.4285E+00  0.1016E+02
  21.183  0.4290E+00  0.1016E+02
  21.193  0.4295E+00  0.1017E+02
  21.203  0.4301E+00  0.1017E+02
  21.213  0.4307E+00  0.1018E+02
  21.223  0.4313E+00  0.1018E+02
  21.233  0.4319E+00  0.1019E+02
  21.243  0.4325E+00  0.1019E+02
  21.253  0.4332E+00  0.1019E+02
  21.263  0.4339E+00  0.1020E+02
  21.273  0.4346E+00  0.1020E+02
  21.283  0.4354E+00  0.1021E+02
  21.293  0.4362E+00  0.1021E+02
  21.303  0.4370E+00  0.1022E+02
  21.313  0.4379E+00  0.1022E+02
  21.323  0.4388E+00  0.1022E+02
  21.333  0.4397E+00  0.1023E+02
  21.343  0.4407E+00  0.1023E+02
  21.353  0.4417E+00  0.1024E+02
  21.363  0.4428E+00  0.1024E+02
  21.373  0.4439E+00  0.1025E+02
  21.383  0.4451E+00  0.1025E+02
  21.393  0.4463E+00  0.1026E+02
  21.403  0.4476E+00  0.1026E+02
  21.413  0.4489E+00  0.1026E+02
  21.423  0.4503E+00  0.1027E+02
  21.433  0.4517E+00  0.1027E+02
  21.443  0.4533E+00  0.1028E+02
  21.453  0.4548E+00  0.1028E+02
  21.463  0.4565E+00  0.1029E+02
  21.473  0.4582E+00  0.1029E+02
  21.483  0.4600E+00  0.1030E+02
  21.493  0.4618E+00  0.1030E+02
  21.503  0.4638E+00  0.1031E+02
  21.513  0.4658E+00  0.1031E+02
  21.523  0.4679E+00  0.1031E+02
  21.533  0.4701E+00  0.1032E+02
  21.543  0.4723E+00  0.1032E+02
  21.553  0.4747E+00  0.1033E+02
  21.563  0.4771E+00  0.1033E+02
  21.573  0.4796E+00  0.1034E+02
  21.583  0.4822E+00  0.1034E+02
  21.593  0.4849E+00  0.1035E+02
  21.603  0.4878E+00  0.1035E+02
  21.613  0.4907E+00  0.1036E+02
  21.623  0.4937E+00  0.1036E+02
  21.633  0.4967E+00  0.1037E+02
  21.643  0.4999E+00  0.1037E+02
  21.653  0.5032E+00  0.1038E+02
  21.663  0.5066E+00  0.1038E+02
  21.673  0.5102E+00  0.1039E+02
  21.683  0.5138E+00  0.1039E+02
  21.693  0.5175E+00  0.1040E+02
  21.703  0.5213E+00  0.1040E+02
  21.713  0.5252E+00  0.1041E+02
  21.723  0.5292E+00  0.1041E+02
  21.733  0.5334E+00  0.1042E+02
  21.743  0.5376E+00  0.1042E+02
  21.753  0.5419E+00  0.1043E+02
  21.763  0.5464E+00  0.1044E+02
  21.773  0.5509E+00  0.1044E+02
  21.783  0.5556E+00  0.1045E+02
  21.793  0.5603E+00  0.1045E+02
  21.803  0.5651E+00  0.1046E+02
  21.813  0.5701E+00  0.1046E+02
  21.823  0.5751E+00  0.1047E+02
  21.833  0.5802E+00  0.1048E+02
  21.843  0.5854E+00  0.1048E+02
  21.853  0.5907E+00  0.1049E+02
  21.863  0.5961E+00  0.1049E+02
  21.873  0.6015E+00  0.1050E+02
  21.883  0.6071E+00  0.1051E+02
  21.893  0.6127E+00  0.1051E+02
  21.903  0.6183E+00  0.1052E+02
  21.913  0.6241E+00  0.1052E+02
  21.923  0.6299E+00  0.1053E+02
  21.933  0.6357E+00  0.1054E+02
  21.943  0.6416E+00  0.1054E+02
  21.953  0.6476E+00  0.1055E+02
  21.963  0.6536E+00  0.1056E+02
  21.973  0.6596E+00  0.1056E+02
  21.983  0.6657E+00  0.1057E+02
  21.993  0.6718E+00  0.1058E+02
  22.003  0.6779E+00  0.1058E+02
  22.013  0.6840E+00  0.1059E+02
  22.023  0.6901E+00  0.1060E+02
  22.033  0.6963E+00  0.1060E+02
  22.043  0.7024E+00  0.1061E+02
  22.053  0.7086E+00  0.1062E+02
  22.063  0.7147E+00  0.1062E+02
  22.073  0.7208E+00  0.1063E+02
  22.083  0.7268E+00  0.1064E+02
  22.093  0.7329E+00  0.1065E+02
  22.103  0.7389E+00  0.1065E+02
  22.113  0.7448E+00  0.1066E+02
  22.123  0.7507E+00  0.1067E+02
  22.133  0.7565E+00  0.1068E+02
  22.143  0.7623E+00  0.1068E+02
  22.153  0.7680E+00  0.1069E+02
  22.163  0.7736E+00  0.1070E+02
  22.173  0.7791E+00  0.1071E+02
  22.183  0.7845E+00  0.1071E+02
  22.193  0.7899E+00  0.1072E+02
  22.203  0.7951E+00  0.1073E+02
  22.213  0.8002E+00  0.1074E+02
  22.223  0.8051E+00  0.1075E+02
  22.233  0.8100E+00  0.1075E+02
  22.243  0.8147E+00  0.1076E+02
  22.253  0.8192E+00  0.1077E+02
  22.263  0.8237E+00  0.1078E+02
  22.273  0.8279E+00  0.1079E+02
  22.283  0.8320E+00  0.1080E+02
  22.293  0.8360E+00  0.1080E+02
  22.303  0.8397E+00  0.1081E+02
  22.313  0.8433E+00  0.1082E+02
  22.323  0.8467E+00  0.1083E+02
  22.333  0.8499E+00  0.1084E+02
  22.343  0.8529E+00  0.1085E+02
  22.353  0.8558E+00  0.1086E+02
  22.363  0.8584E+00  0.1086E+02
  22.373  0.8608E+00  0.1087E+02
  22.383  0.8630E+00  0.1088E+02
  22.393  0.8650E+00  0.1089E+02
  22.403  0.8668E+00  0.1090E+02
  22.413  0.8684E+00  0.1091E+02
  22.423  0.8697E+00  0.1092E+02
  22.433  0.8708E+00  0.1092E+02
  22.443  0.8717E+00  0.1093E+02
  22.453  0.8724E+00  0.1094E+02
  22.463  0.8728E+00  0.1095E+02
  22.473  0.8730E+00  0.1096E+02
  22.483  0.8730E+00  0.1097E+02
  22.493  0.8727E+00  0.1098E+02
  22.503  0.8722E+00  0.1099E+02
  22.513  0.8715E+00  0.1099E+02
  22.523  0.8706E+00  0.1100E+02
  22.533  0.8694E+00  0.1101E+02
  22.543  0.8680E+00  0.1102E+02
  22.553  0.8664E+00  0.1103E+02
  22.563  0.8645E+00  0.1104E+02
  22.573  0.8625E+00  0.1105E+02
  22.583  0.8602E+00  0.1105E+02
  22.593  0.8577E+00  0.1106E+02
  22.603  0.8550E+00  0.1107E+02
  22.613  0.8521E+00  0.1108E+02
  22.623  0.8490E+00  0.1109E+02
  22.633  0.8458E+00  0.1110E+02
  22.643  0.8423E+00  0.1111E+02
  22.653  0.8386E+00  0.1111E+02
  22.663  0.8348E+00  0.1112E+02
  22.673  0.8308E+00  0.1113E+02
  22.683  0.8266E+00  0.1114E+02
  22.693  0.8223E+00  0.1115E+02
  22.703  0.8178E+00  0.1116E+02
  22.713  0.8132E+00  0.1116E+02
  22.723  0.8084E+00  0.1117E+02
  22.733  0.8035E+00  0.1118E+02
  22.743  0.7985E+00  0.1119E+02
  22.753  0.7933E+00  0.1120E+02
  22.763  0.7881E+00  0.1120E+02
  22.773  0.7828E+00  0.1121E+02
  22.783  0.7773E+00  0.1122E+02
  22.793  0.7718E+00  0.1123E+02
  22.803  0.7662E+00  0.1123E+02
  22.813  0.7605E+00  0.1124E+02
  22.823  0.7548E+00  0.1125E+02
  22.833  0.7490E+00  0.1126E+02
  22.843  0.7432E+00  0.1126E+02
  22.853  0.7373E+00  0.1127E+02
  22.863  0.7314E+00  0.1128E+02
  22.873  0.7255E+00  0.1129E+02
  22.883  0.7195E+00  0.1129E+02
  22.893  0.7136E+00  0.1130E+02
  22.903  0.7076E+00  0.1131E+02
  22.913  0.7017E+00  0.1132E+02
  22.923  0.6957E+00  0.1132E+02
  22.933  0.6898E+00  0.1133E+02
  22.943  0.6839E+00  0.1134E+02
  22.953  0.6780E+00  0.1134E+02
  22.963  0.6722E+00  0.1135E+02
  22.973  0.6664E+00  0.1136E+02
  22.983  0.6606E+00  0.1136E+02
  22.993  0.6549E+00  0.1137E+02
  23.003  0.6493E+00  0.1138E+02
  23.013  0.6437E+00  0.1138E+02
  23.023  0.6381E+00  0.1139E+02
  23.033  0.6326E+00  0.1139E+02
  23.043  0.6272E+00  0.1140E+02
  23.053  0.6219E+00  0.1141E+02
  23.063  0.6166E+00  0.1141E+02
  23.073  0.6114E+00  0.1142E+02
  23.083  0.6062E+00  0.1143E+02
  23.093  0.6011E+00  0.1143E+02
  23.103  0.5962E+00  0.1144E+02
  23.113  0.5912E+00  0.1144E+02
  23.123  0.5864E+00  0.1145E+02
  23.133  0.5816E+00  0.1146E+02
  23.143  0.5769E+00  0.1146E+02
  23.153  0.5723E+00  0.1147E+02
  23.163  0.5678E+00  0.1147E+02
  23.173  0.5633E+00  0.1148E+02
  23.183  0.5589E+00  0.1148E+02
  23.193  0.5546E+00  0.1149E+02
  23.203  0.5503E+00  0.1149E+02
  23.213  0.5461E+00  0.1150E+02
  23.223  0.5420E+00  0.1151E+02
  23.233  0.5379E+00  0.1151E+02
  23.243  0.5339E+00  0.1152E+02
  23.253  0.5299E+00  0.1152E+02
  23.263  0.5260E+00  0.1153E+02
  23.273  0.5222E+00  0.1153E+02
  23.283  0.5184E+00  0.1154E+02
  23.293  0.5146E+00  0.1154E+02
  23.303  0.5109E+00  0.1155E+02
  23.313  0.5072E+00  0.1155E+02
  23.323  0.5036E+00  0.1156E+02
  23.333  0.5000E+00  0.1156E+02
  23.343  0.4964E+00  0.1157E+02
  23.353  0.4929E+00  0.1157E+02
  23.363  0.4893E+00  0.1158E+02
  23.373  0.4858E+00  0.1158E+02
  23.383  0.4824E+00  0.1159E+02
  23.393  0.4789E+00  0.1159E+02
  23.403  0.4755E+00  0.1160E+02
  23.413  0.4720E+00  0.1160E+02
  23.423  0.4686E+00  0.1161E+02
  23.433  0.4652E+00  0.1161E+02
  23.443  0.4619E+00  0.1162E+02
  23.453  0.4585E+00  0.1162E+02
  23.463  0.4551E+00  0.1162E+02
  23.473  0.4518E+00  0.1163E+02
  23.483  0.4484E+00  0.1163E+02
  23.493  0.4451E+00  0.1164E+02
  23.503  0.4418E+00  0.1164E+02
  23.513  0.4384E+00  0.1165E+02
  23.523  0.4351E+00  0.1165E+02
  23.533  0.4318E+00  0.1166E+02
  23.543  0.4286E+00  0.1166E+02
  23.553  0.4253E+00  0.1166E+02
  23.563  0.4221E+00  0.1167E+02
  23.573  0.4188E+00  0.1167E+02
  23.583  0.4156E+00  0.1168E+02
  23.593  0.4124E+00  0.1168E+02
  23.603  0.4093E+00  0.1168E+02
  23.613  0.4062E+00  0.1169E+02
  23.623  0.4031E+00  0.1169E+02
  23.633  0.4000E+00  0.1170E+02
  23.643  0.3970E+00  0.1170E+02
  23.653  0.3941E+00  0.1170E+02
  23.663  0.3912E+00  0.1171E+02
  23.673  0.3883E+00  0.1171E+02
  23.683  0.3855E+00  0.1172E+02
  23.693  0.3828E+00  0.1172E+02
  23.703  0.3801E+00  0.1172E+02
  23.713  0.3775E+00  0.1173E+02
  23.723  0.3750E+00  0.1173E+02
  23.733  0.3726E+00  0.1174E+02
  23.743  0.3702E+00  0.1174E+02
  23.753  0.3680E+00  0.1174E+02
  23.763  0.3659E+00  0.1175E+02
  23.773  0.3638E+00  0.1175E+02
  23.783  0.3619E+00  0.1175E+02
  23.793  0.3601E+00  0.1176E+02
  23.803  0.3584E+00  0.1176E+02
  23.813  0.3568E+00  0.1176E+02
  23.823  0.3554E+00  0.1177E+02
  23.833  0.3540E+00  0.1177E+02
  23.843  0.3529E+00  0.1177E+02
  23.853  0.3518E+00  0.1178E+02
  23.863  0.3509E+00  0.1178E+02
  23.873  0.3502E+00  0.1179E+02
  23.883  0.3496E+00  0.1179E+02
  23.893  0.3492E+00  0.1179E+02
  23.903  0.3489E+00  0.1180E+02
  23.913  0.3488E+00  0.1180E+02
  23.923  0.3488E+00  0.1180E+02
  23.933  0.3491E+00  0.1181E+02
  23.943  0.3494E+00  0.1181E+02
  23.953  0.3500E+00  0.1181E+02
  23.963  0.3507E+00  0.1182E+02
  23.973  0.3516E+00  0.1182E+02
  23.983  0.3527E+00  0.1182E+02
  23.993  0.3539E+00  0.1183E+02
  24.003  0.3553E+00  0.1183E+02
  24.013  0.3569E+00  0.1183E+02
  24.023  0.3586E+00  0.1184E+02
  24.033  0.3605E+00  0.1184E+02
  24.043  0.3626E+00  0.1185E+02
  24.053  0.3648E+00  0.1185E+02
  24.063  0.3672E+00  0.1185E+02
  24.073  0.3697E+00  0.1186E+02
  24.083  0.3724E+00  0.1186E+02
  24.093  0.3753E+00  0.1186E+02
  24.103  0.3783E+00  0.1187E+02
  24.113  0.3814E+00  0.1187E+02
  24.123  0.3847E+00  0.1188E+02
  24.133  0.3881E+00  0.1188E+02
  24.143  0.3916E+00  0.1188E+02
  24.153  0.3953E+00  0.1189E+02
  24.163  0.3990E+00  0.1189E+02
  24.173  0.4029E+00  0.1190E+02
  24.183  0.4069E+00  0.1190E+02
  24.193  0.4110E+00  0.1190E+02
  24.203  0.4151E+00  0.1191E+02
  24.213  0.4194E+00  0.1191E+02
  24.223  0.4237E+00  0.1192E+02
  24.233  0.4281E+00  0.1192E+02
  24.243  0.4325E+00  0.1192E+02
  24.253  0.4370E+00  0.1193E+02
  24.263  0.4416E+00  0.1193E+02
  24.273  0.4462E+00  0.1194E+02
  24.283  0.4508E+00  0.1194E+02
  24.293  0.4554E+00  0.1195E+02
  24.303  0.4601E+00  0.1195E+02
  24.313  0.4648E+00  0.1196E+02
  24.323  0.4695E+00  0.1196E+02
  24.333  0.4741E+00  0.1197E+02
  24.343  0.4788E+00  0.1197E+02
  24.353  0.4835E+00  0.1198E+02
  24.363  0.4881E+00  0.1198E+02
  24.373  0.4927E+00  0.1198E+02
  24.383  0.4972E+00  0.1199E+02
  24.393  0.5018E+00  0.1199E+02
  24.403  0.5062E+00  0.1200E+02
  24.413  0.5106E+00  0.1200E+02
  24.423  0.5150E+00  0.1201E+02
  24.433  0.5193E+00  0.1202E+02
  24.443  0.5235E+00  0.1202E+02
  24.453  0.5276E+00  0.1203E+02
  24.463  0.5316E+00  0.1203E+02
  24.473  0.5356E+00  0.1204E+02
  24.483  0.5395E+00  0.1204E+02
  24.493  0.5433E+00  0.1205E+02
  24.503  0.5470E+00  0.1205E+02
  24.513  0.5506E+00  0.1206E+02
  24.523  0.5541E+00  0.1206E+02
  24.533  0.5574E+00  0.1207E+02
  24.543  0.5607E+00  0.1208E+02
  24.553  0.5639E+00  0.1208E+02
  24.563  0.5670E+00  0.1209E+02
  24.573  0.5699E+00  0.1209E+02
  24.583  0.5728E+00  0.1210E+02
  24.593  0.5755E+00  0.1210E+02
  24.603  0.5781E+00  0.1211E+02
  24.613  0.5807E+00  0.1212E+02
  24.623  0.5831E+00  0.1212E+02
  24.633  0.5854E+00  0.1213E+02
  24.643  0.5875E+00  0.1213E+02
  24.653  0.5896E+00  0.1214E+02
  24.663  0.5916E+00  0.1214E+02
  24.673  0.5935E+00  0.1215E+02
  24.683  0.5952E+00  0.1216E+02
  24.693  0.5969E+00  0.1216E+02
  24.703  0.5985E+00  0.1217E+02
  24.713  0.5999E+00  0.1217E+02
  24.723  0.6013E+00  0.1218E+02
  24.733  0.6026E+00  0.1219E+02
  24.743  0.6038E+00  0.1219E+02
  24.753  0.6049E+00  0.1220E+02
  24.763  0.6060E+00  0.1220E+02
  24.773  0.6069E+00  0.1221E+02
  24.783  0.6078E+00  0.1222E+02
  24.793  0.6087E+00  0.1222E+02
  24.803  0.6094E+00  0.1223E+02
  24.813  0.6101E+00  0.1223E+02
  24.823  0.6108E+00  0.1224E+02
  24.833  0.6114E+00  0.1225E+02
  24.843  0.6119E+00  0.1225E+02
  24.853  0.6124E+00  0.1226E+02
  24.863  0.6129E+00  0.1227E+02
  24.873  0.6133E+00  0.1227E+02
  24.883  0.6137E+00  0.1228E+02
  24.893  0.6141E+00  0.1228E+02
  24.903  0.6144E+00  0.1229E+02
  24.913  0.6147E+00  0.1230E+02
  24.923  0.6150E+00  0.1230E+02
  24.933  0.6153E+00  0.1231E+02
  24.943  0.6156E+00  0.1231E+02
  24.953  0.6159E+00  0.1232E+02
  24.963  0.6162E+00  0.1233E+02
  24.973  0.6165E+00  0.1233E+02
  24.983  0.6168E+00  0.1234E+02
  24.993  0.6171E+00  0.1235E+02
  25.003  0.6174E+00  0.1235E+02
  25.013  0.6177E+00  0.1236E+02
  25.023  0.6181E+00  0.1236E+02
  25.033  0.6185E+00  0.1237E+02
  25.043  0.6189E+00  0.1238E+02
  25.053  0.6194E+00  0.1238E+02
  25.063  0.6199E+00  0.1239E+02
  25.073  0.6204E+00  0.1240E+02
  25.083  0.6209E+00  0.1240E+02
  25.093  0.6216E+00  0.1241E+02
  25.103  0.6222E+00  0.1241E+02
  25.113  0.6229E+00  0.1242E+02
  25.123  0.6237E+00  0.1243E+02
  25.133  0.6245E+00  0.1243E+02
  25.143  0.6253E+00  0.1244E+02
  25.153  0.6262E+00  0.1244E+02
  25.163  0.6272E+00  0.1245E+02
  25.173  0.6282E+00  0.1246E+02
  25.183  0.6293E+00  0.1246E+02
  25.193  0.6305E+00  0.1247E+02
  25.203  0.6317E+00  0.1248E+02
  25.213  0.6330E+00  0.1248E+02
  25.223  0.6344E+00  0.1249E+02
  25.233  0.6358E+00  0.1250E+02
  25.243  0.6373E+00  0.1250E+02
  25.253  0.6389E+00  0.1251E+02
  25.263  0.6406E+00  0.1251E+02
  25.273  0.6423E+00  0.1252E+02
  25.283  0.6441E+00  0.1253E+02
  25.293  0.6459E+00  0.1253E+02
  25.303  0.6479E+00  0.1254E+02
  25.313  0.6499E+00  0.1255E+02
  25.323  0.6520E+00  0.1255E+02
  25.333  0.6541E+00  0.1256E+02
  25.343  0.6563E+00  0.1257E+02
  25.353  0.6587E+00  0.1257E+02
  25.363  0.6610E+00  0.1258E+02
  25.373  0.6635E+00  0.1259E+02
  25.383  0.6660E+00  0.1259E+02
  25.393  0.6686E+00  0.1260E+02
  25.403  0.6712E+00  0.1261E+02
  25.413  0.6739E+00  0.1261E+02
  25.423  0.6767E+00  0.1262E+02
  25.433  0.6795E+00  0.1263E+02
  25.443  0.6824E+00  0.1263E+02
  25.453  0.6854E+00  0.1264E+02
  25.463  0.6884E+00  0.1265E+02
  25.473  0.6914E+00  0.1265E+02
  25.483  0.6945E+00  0.1266E+02
  25.493  0.6977E+00  0.1267E+02
  25.503  0.7009E+00  0.1268E+02
  25.513  0.7041E+00  0.1268E+02
  25.523  0.7074E+00  0.1269E+02
  25.533  0.7107E+00  0.1270E+02
  25.543  0.7140E+00  0.1270E+02
  25.553  0.7173E+00  0.1271E+02
  25.563  0.7207E+00  0.1272E+02
  25.573  0.7241E+00  0.1273E+02
  25.583  0.7275E+00  0.1273E+02
  25.593  0.7309E+00  0.1274E+02
  25.603  0.7343E+00  0.1275E+02
  25.613  0.7377E+00  0.1275E+02
  25.623  0.7411E+00  0.1276E+02
  25.633  0.7445E+00  0.1277E+02
  25.643  0.7479E+00  0.1278E+02
  25.653  0.7512E+00  0.1278E+02
  25.663  0.7545E+00  0.1279E+02
  25.673  0.7578E+00  0.1280E+02
  25.683  0.7610E+00  0.1281E+02
  25.693  0.7642E+00  0.1281E+02
  25.703  0.7674E+00  0.1282E+02
  25.713  0.7705E+00  0.1283E+02
  25.723  0.7735E+00  0.1284E+02
  25.733  0.7765E+00  0.1285E+02
  25.743  0.7793E+00  0.1285E+02
  25.753  0.7821E+00  0.1286E+02
  25.763  0.7849E+00  0.1287E+02
  25.773  0.7875E+00  0.1288E+02
  25.783  0.7900E+00  0.1288E+02
  25.793  0.7924E+00  0.1289E+02
  25.803  0.7948E+00  0.1290E+02
  25.813  0.7970E+00  0.1291E+02
  25.823  0.7990E+00  0.1292E+02
  25.833  0.8010E+00  0.1292E+02
  25.843  0.8028E+00  0.1293E+02
  25.853  0.8045E+00  0.1294E+02
  25.863  0.8061E+00  0.1295E+02
  25.873  0.8075E+00  0.1296E+02
  25.883  0.8088E+00  0.1296E+02
  25.893  0.8099E+00  0.1297E+02
  25.903  0.8108E+00  0.1298E+02
  25.913  0.8116E+00  0.1299E+02
  25.923  0.8122E+00  0.1300E+02
  25.933  0.8127E+00  0.1301E+02
  25.943  0.8129E+00  0.1301E+02
  25.953  0.8130E+00  0.1302E+02
  25.963  0.8130E+00  0.1303E+02
  25.973  0.8127E+00  0.1304E+02
  25.983  0.8123E+00  0.1305E+02
  25.993  0.8116E+00  0.1305E+02
  26.003  0.8108E+00  0.1306E+02
  26.013  0.8098E+00  0.1307E+02
  26.023  0.8086E+00  0.1308E+02
  26.033  0.8073E+00  0.1309E+02
  26.043  0.8057E+00  0.1309E+02
  26.053  0.8039E+00  0.1310E+02
  26.063  0.8020E+00  0.1311E+02
  26.073  0.7998E+00  0.1312E+02
  26.083  0.7975E+00  0.1313E+02
  26.093  0.7950E+00  0.1313E+02
  26.103  0.7923E+00  0.1314E+02
  26.113  0.7894E+00  0.1315E+02
  26.123  0.7864E+00  0.1316E+02
  26.133  0.7831E+00  0.1317E+02
  26.143  0.7797E+00  0.1317E+02
  26.153  0.7761E+00  0.1318E+02
  26.163  0.7724E+00  0.1319E+02
  26.173  0.7685E+00  0.1320E+02
  26.183  0.7644E+00  0.1320E+02
  26.193  0.7602E+00  0.1321E+02
  26.203  0.7558E+00  0.1322E+02
  26.213  0.7513E+00  0.1323E+02
  26.223  0.7467E+00  0.1323E+02
  26.233  0.7419E+00  0.1324E+02
  26.243  0.7370E+00  0.1325E+02
  26.253  0.7320E+00  0.1326E+02
  26.263  0.7269E+00  0.1326E+02
  26.273  0.7217E+00  0.1327E+02
  26.283  0.7164E+00  0.1328E+02
  26.293  0.7109E+00  0.1329E+02
  26.303  0.7055E+00  0.1329E+02
  26.313  0.6999E+00  0.1330E+02
  26.323  0.6943E+00  0.1331E+02
  26.333  0.6886E+00  0.1331E+02
  26.343  0.6829E+00  0.1332E+02
  26.353  0.6771E+00  0.1333E+02
  26.363  0.6713E+00  0.1333E+02
  26.373  0.6655E+00  0.1334E+02
  26.383  0.6597E+00  0.1335E+02
  26.393  0.6539E+00  0.1335E+02
  26.403  0.6481E+00  0.1336E+02
  26.413  0.6423E+00  0.1337E+02
  26.423  0.6365E+00  0.1337E+02
  26.433  0.6308E+00  0.1338E+02
  26.443  0.6251E+00  0.1339E+02
  26.453  0.6194E+00  0.1339E+02
  26.463  0.6138E+00  0.1340E+02
  26.473  0.6083E+00  0.1340E+02
  26.483  0.6028E+00  0.1341E+02
  26.493  0.5975E+00  0.1342E+02
  26.503  0.5922E+00  0.1342E+02
  26.513  0.5870E+00  0.1343E+02
  26.523  0.5820E+00  0.1343E+02
  26.533  0.5770E+00  0.1344E+02
  26.543  0.5722E+00  0.1345E+02
  26.553  0.5675E+00  0.1345E+02
  26.563  0.5629E+00  0.1346E+02
  26.573  0.5585E+00  0.1346E+02
  26.583  0.5542E+00  0.1347E+02
  26.593  0.5501E+00  0.1347E+02
  26.603  0.5461E+00  0.1348E+02
  26.613  0.5423E+00  0.1348E+02
  26.623  0.5387E+00  0.1349E+02
  26.633  0.5352E+00  0.1349E+02
  26.643  0.5320E+00  0.1350E+02
  26.653  0.5289E+00  0.1351E+02
  26.663  0.5260E+00  0.1351E+02
  26.673  0.5233E+00  0.1352E+02
  26.683  0.5208E+00  0.1352E+02
  26.693  0.5184E+00  0.1353E+02
  26.703  0.5163E+00  0.1353E+02
  26.713  0.5144E+00  0.1354E+02
  26.723  0.5127E+00  0.1354E+02
  26.733  0.5112E+00  0.1355E+02
  26.743  0.5099E+00  0.1355E+02
  26.753  0.5088E+00  0.1356E+02
  26.763  0.5079E+00  0.1356E+02
  26.773  0.5072E+00  0.1357E+02
  26.783  0.5068E+00  0.1357E+02
  26.793  0.5065E+00  0.1358E+02
  26.803  0.5064E+00  0.1358E+02
  26.813  0.5066E+00  0.1359E+02
  26.823  0.5070E+00  0.1359E+02
  26.833  0.5075E+00  0.1360E+02
  26.843  0.5083E+00  0.1360E+02
  26.853  0.5093E+00  0.1361E+02
  26.863  0.5105E+00  0.1361E+02
  26.873  0.5118E+00  0.1362E+02
  26.883  0.5134E+00  0.1362E+02
  26.893  0.5152E+00  0.1363E+02
  26.903  0.5171E+00  0.1363E+02
  26.913  0.5192E+00  0.1364E+02
  26.923  0.5216E+00  0.1364E+02
  26.933  0.5241E+00  0.1365E+02
  26.943  0.5267E+00  0.1365E+02
  26.953  0.5296E+00  0.1366E+02
  26.963  0.5326E+00  0.1366E+02
  26.973  0.5358E+00  0.1367E+02
  26.983  0.5391E+00  0.1368E+02
  26.993  0.5426E+00  0.1368E+02
  27.003  0.5463E+00  0.1369E+02
  27.013  0.5501E+00  0.1369E+02
  27.023  0.5540E+00  0.1370E+02
  27.033  0.5581E+00  0.1370E+02
  27.043  0.5623E+00  0.1371E+02
  27.053  0.5667E+00  0.1371E+02
  27.063  0.5711E+00  0.1372E+02
  27.073  0.5757E+00  0.1373E+02
  27.083  0.5804E+00  0.1373E+02
  27.093  0.5852E+00  0.1374E+02
  27.103  0.5901E+00  0.1374E+02
  27.113  0.5951E+00  0.1375E+02
  27.123  0.6002E+00  0.1376E+02
  27.133  0.6054E+00  0.1376E+02
  27.143  0.6106E+00  0.1377E+02
  27.153  0.6159E+00  0.1377E+02
  27.163  0.6213E+00  0.1378E+02
  27.173  0.6268E+00  0.1379E+02
  27.183  0.6323E+00  0.1379E+02
  27.193  0.6378E+00  0.1380E+02
  27.203  0.6434E+00  0.1381E+02
  27.213  0.6491E+00  0.1381E+02
  27.223  0.6547E+00  0.1382E+02
  27.233  0.6604E+00  0.1382E+02
  27.243  0.6661E+00  0.1383E+02
  27.253  0.6718E+00  0.1384E+02
  27.263  0.6775E+00  0.1385E+02
  27.273  0.6832E+00  0.1385E+02
  27.283  0.6889E+00  0.1386E+02
  27.293  0.6945E+00  0.1387E+02
  27.303  0.7002E+00  0.1387E+02
  27.313  0.7058E+00  0.1388E+02
  27.323  0.7113E+00  0.1389E+02
  27.333  0.7169E+00  0.1389E+02
  27.343  0.7223E+00  0.1390E+02
  27.353  0.7277E+00  0.1391E+02
  27.363  0.7330E+00  0.1392E+02
  27.373  0.7383E+00  0.1392E+02
  27.383  0.7434E+00  0.1393E+02
  27.393  0.7485E+00  0.1394E+02
  27.403  0.7535E+00  0.1395E+02
  27.413  0.7584E+00  0.1395E+02
  27.423  0.7631E+00  0.1396E+02
  27.433  0.7678E+00  0.1397E+02
  27.443  0.7723E+00  0.1398E+02
  27.453  0.7767E+00  0.1398E+02
  27.463  0.7809E+00  0.1399E+02
  27.473  0.7850E+00  0.1400E+02
  27.483  0.7889E+00  0.1401E+02
  27.493  0.7927E+00  0.1402E+02
  27.503  0.7963E+00  0.1402E+02
  27.513  0.7998E+00  0.1403E+02
  27.523  0.8031E+00  0.1404E+02
  27.533  0.8062E+00  0.1405E+02
  27.543  0.8091E+00  0.1406E+02
  27.553  0.8118E+00  0.1406E+02
  27.563  0.8143E+00  0.1407E+02
  27.573  0.8166E+00  0.1408E+02
  27.583  0.8187E+00  0.1409E+02
  27.593  0.8206E+00  0.1410E+02
  27.603  0.8223E+00  0.1410E+02
  27.613  0.8238E+00  0.1411E+02
  27.623  0.8250E+00  0.1412E+02
  27.633  0.8261E+00  0.1413E+02
  27.643  0.8269E+00  0.1414E+02
  27.653  0.8274E+00  0.1415E+02
  27.663  0.8278E+00  0.1415E+02
  27.673  0.8279E+00  0.1416E+02
  27.683  0.8278E+00  0.1417E+02
  27.693  0.8274E+00  0.1418E+02
  27.703  0.8268E+00  0.1419E+02
  27.713  0.8260E+00  0.1420E+02
  27.723  0.8249E+00  0.1420E+02
  27.733  0.8237E+00  0.1421E+02
  27.743  0.8221E+00  0.1422E+02
  27.753  0.8204E+00  0.1423E+02
  27.763  0.8184E+00  0.1424E+02
  27.773  0.8162E+00  0.1424E+02
  27.783  0.8137E+00  0.1425E+02
  27.793  0.8111E+00  0.1426E+02
  27.803  0.8082E+00  0.1427E+02
  27.813  0.8051E+00  0.1428E+02
  27.823  0.8018E+00  0.1429E+02
  27.833  0.7983E+00  0.1429E+02
  27.843  0.7946E+00  0.1430E+02
  27.853  0.7907E+00  0.1431E+02
  27.863  0.7866E+00  0.1432E+02
  27.873  0.7823E+00  0.1432E+02
  27.883  0.7778E+00  0.1433E+02
  27.893  0.7732E+00  0.1434E+02
  27.903  0.7684E+00  0.1435E+02
  27.913  0.7634E+00  0.1436E+02
  27.923  0.7583E+00  0.1436E+02
  27.933  0.7530E+00  0.1437E+02
  27.943  0.7476E+00  0.1438E+02
  27.953  0.7421E+00  0.1439E+02
  27.963  0.7364E+00  0.1439E+02
  27.973  0.7306E+00  0.1440E+02
  27.983  0.7247E+00  0.1441E+02
  27.993  0.7187E+00  0.1441E+02
  28.003  0.7126E+00  0.1442E+02
  28.013  0.7065E+00  0.1443E+02
  28.023  0.7002E+00  0.1444E+02
  28.033  0.6939E+00  0.1444E+02
  28.043  0.6876E+00  0.1445E+02
  28.053  0.6812E+00  0.1446E+02
  28.063  0.6747E+00  0.1446E+02
  28.073  0.6682E+00  0.1447E+02
  28.083  0.6617E+00  0.1448E+02
  28.093  0.6552E+00  0.1448E+02
  28.103  0.6487E+00  0.1449E+02
  28.113  0.6422E+00  0.1450E+02
  28.123  0.6357E+00  0.1450E+02
  28.133  0.6292E+00  0.1451E+02
  28.143  0.6227E+00  0.1452E+02
  28.153  0.6163E+00  0.1452E+02
  28.163  0.6099E+00  0.1453E+02
  28.173  0.6036E+00  0.1453E+02
  28.183  0.5973E+00  0.1454E+02
  28.193  0.5911E+00  0.1455E+02
  28.203  0.5850E+00  0.1455E+02
  28.213  0.5790E+00  0.1456E+02
  28.223  0.5730E+00  0.1456E+02
  28.233  0.5671E+00  0.1457E+02
  28.243  0.5614E+00  0.1457E+02
  28.253  0.5557E+00  0.1458E+02
  28.263  0.5501E+00  0.1458E+02
  28.273  0.5447E+00  0.1459E+02
  28.283  0.5394E+00  0.1460E+02
  28.293  0.5342E+00  0.1460E+02
  28.303  0.5291E+00  0.1461E+02
  28.313  0.5241E+00  0.1461E+02
  28.323  0.5193E+00  0.1462E+02
  28.333  0.5146E+00  0.1462E+02
  28.343  0.5101E+00  0.1463E+02
  28.353  0.5057E+00  0.1463E+02
  28.363  0.5014E+00  0.1464E+02
  28.373  0.4973E+00  0.1464E+02
  28.383  0.4933E+00  0.1465E+02
  28.393  0.4895E+00  0.1465E+02
  28.403  0.4858E+00  0.1466E+02
  28.413  0.4823E+00  0.1466E+02
  28.423  0.4789E+00  0.1467E+02
  28.433  0.4756E+00  0.1467E+02
  28.443  0.4725E+00  0.1468E+02
  28.453  0.4696E+00  0.1468E+02
  28.463  0.4668E+00  0.1469E+02
  28.473  0.4641E+00  0.1469E+02
  28.483  0.4616E+00  0.1469E+02
  28.493  0.4592E+00  0.1470E+02
  28.503  0.4569E+00  0.1470E+02
  28.513  0.4548E+00  0.1471E+02
  28.523  0.4528E+00  0.1471E+02
  28.533  0.4509E+00  0.1472E+02
  28.543  0.4492E+00  0.1472E+02
  28.553  0.4476E+00  0.1473E+02
  28.563  0.4460E+00  0.1473E+02
  28.573  0.4447E+00  0.1474E+02
  28.583  0.4434E+00  0.1474E+02
  28.593  0.4422E+00  0.1474E+02
  28.603  0.4412E+00  0.1475E+02
  28.613  0.4402E+00  0.1475E+02
  28.623  0.4393E+00  0.1476E+02
  28.633  0.4386E+00  0.1476E+02
  28.643  0.4379E+00  0.1477E+02
  28.653  0.4373E+00  0.1477E+02
  28.663  0.4368E+00  0.1477E+02
  28.673  0.4364E+00  0.1478E+02
  28.683  0.4360E+00  0.1478E+02
  28.693  0.4358E+00  0.1479E+02
  28.703  0.4356E+00  0.1479E+02
  28.713  0.4354E+00  0.1480E+02
  28.723  0.4354E+00  0.1480E+02
  28.733  0.4354E+00  0.1481E+02
  28.743  0.4354E+00  0.1481E+02
  28.753  0.4355E+00  0.1481E+02
  28.763  0.4357E+00  0.1482E+02
  28.773  0.4359E+00  0.1482E+02
  28.783  0.4362E+00  0.1483E+02
  28.793  0.4365E+00  0.1483E+02
  28.803  0.4369E+00  0.1484E+02
  28.813  0.4373E+00  0.1484E+02
  28.823  0.4378E+00  0.1484E+02
  28.833  0.4383E+00  0.1485E+02
  28.843  0.4388E+00  0.1485E+02
  28.853  0.4394E+00  0.1486E+02
  28.863  0.4400E+00  0.1486E+02
  28.873  0.4407E+00  0.1487E+02
  28.883  0.4414E+00  0.1487E+02
  28.893  0.4421E+00  0.1488E+02
  28.903  0.4429E+00  0.1488E+02
  28.913  0.4438E+00  0.1488E+02
  28.923  0.4446E+00  0.1489E+02
  28.933  0.4455E+00  0.1489E+02
  28.943  0.4465E+00  0.1490E+02
  28.953  0.4474E+00  0.1490E+02
  28.963  0.4485E+00  0.1491E+02
  28.973  0.4495E+00  0.1491E+02
  28.983  0.4506E+00  0.1492E+02
  28.993  0.4518E+00  0.1492E+02
  29.003  0.4530E+00  0.1492E+02
  29.013  0.4542E+00  0.1493E+02
  29.023  0.4555E+00  0.1493E+02
  29.033  0.4569E+00  0.1494E+02
  29.043  0.4583E+00  0.1494E+02
  29.053  0.4597E+00  0.1495E+02
  29.063  0.4612E+00  0.1495E+02
  29.073  0.4628E+00  0.1496E+02
  29.083  0.4644E+00  0.1496E+02
  29.093  0.4660E+00  0.1497E+02
  29.103  0.4678E+00  0.1497E+02
  29.113  0.4695E+00  0.1498E+02
  29.123  0.4714E+00  0.1498E+02
  29.133  0.4733E+00  0.1498E+02
  29.143  0.4753E+00  0.1499E+02
  29.153  0.4773E+00  0.1499E+02
  29.163  0.4794E+00  0.1500E+02
  29.173  0.4815E+00  0.1500E+02
  29.183  0.4838E+00  0.1501E+02
  29.193  0.4861E+00  0.1501E+02
  29.203  0.4884E+00  0.1502E+02
  29.213  0.4909E+00  0.1502E+02
  29.223  0.4934E+00  0.1503E+02
  29.233  0.4960E+00  0.1503E+02
  29.243  0.4986E+00  0.1504E+02
  29.253  0.5013E+00  0.1504E+02
  29.263  0.5041E+00  0.1505E+02
  29.273  0.5069E+00  0.1505E+02
  29.283  0.5099E+00  0.1506E+02
  29.293  0.5128E+00  0.1506E+02
  29.303  0.5159E+00  0.1507E+02
  29.313  0.5190E+00  0.1507E+02
  29.323  0.5222E+00  0.1508E+02
  29.333  0.5255E+00  0.1508E+02
  29.343  0.5288E+00  0.1509E+02
  29.353  0.5322E+00  0.1510E+02
  29.363  0.5356E+00  0.1510E+02
  29.373  0.5391E+00  0.1511E+02
  29.383  0.5427E+00  0.1511E+02
  29.393  0.5463E+00  0.1512E+02
  29.403  0.5499E+00  0.1512E+02
  29.413  0.5537E+00  0.1513E+02
  29.423  0.5574E+00  0.1513E+02
  29.433  0.5612E+00  0.1514E+02
  29.443  0.5651E+00  0.1514E+02
  29.453  0.5690E+00  0.1515E+02
  29.463  0.5729E+00  0.1516E+02
  29.473  0.5769E+00  0.1516E+02
  29.483  0.5809E+00  0.1517E+02
  29.493  0.5849E+00  0.1517E+02
  29.503  0.5889E+00  0.1518E+02
  29.513  0.5930E+00  0.1519E+02
  29.523  0.5971E+00  0.1519E+02
  29.533  0.6012E+00  0.1520E+02
  29.543  0.6053E+00  0.1520E+02
  29.553  0.6094E+00  0.1521E+02
  29.563  0.6135E+00  0.1522E+02
  29.573  0.6176E+00  0.1522E+02
  29.583  0.6217E+00  0.1523E+02
  29.593  0.6258E+00  0.1523E+02
  29.603  0.6298E+00  0.1524E+02
  29.613  0.6339E+00  0.1525E+02
  29.623  0.6379E+00  0.1525E+02
  29.633  0.6419E+00  0.1526E+02
  29.643  0.6458E+00  0.1527E+02
  29.653  0.6497E+00  0.1527E+02
  29.663  0.6536E+00  0.1528E+02
  29.673  0.6574E+00  0.1529E+02
  29.683  0.6612E+00  0.1529E+02
  29.693  0.6649E+00  0.1530E+02
  29.703  0.6685E+00  0.1531E+02
  29.713  0.6721E+00  0.1531E+02
  29.723  0.6757E+00  0.1532E+02
  29.733  0.6791E+00  0.1533E+02
  29.743  0.6825E+00  0.1533E+02
  29.753  0.6857E+00  0.1534E+02
  29.763  0.6889E+00  0.1535E+02
  29.773  0.6921E+00  0.1535E+02
  29.783  0.6951E+00  0.1536E+02
  29.793  0.6980E+00  0.1537E+02
  29.803  0.7008E+00  0.1537E+02
  29.813  0.7035E+00  0.1538E+02
  29.823  0.7062E+00  0.1539E+02
  29.833  0.7087E+00  0.1540E+02
  29.843  0.7111E+00  0.1540E+02
  29.853  0.7134E+00  0.1541E+02
  29.863  0.7156E+00  0.1542E+02
  29.873  0.7177E+00  0.1542E+02
  29.883  0.7196E+00  0.1543E+02
  29.893  0.7215E+00  0.1544E+02
  29.903  0.7232E+00  0.1545E+02
  29.913  0.7248E+00  0.1545E+02
  29.923  0.7263E+00  0.1546E+02
  29.933  0.7277E+00  0.1547E+02
  29.943  0.7289E+00  0.1547E+02
  29.953  0.7301E+00  0.1548E+02
  29.963  0.7311E+00  0.1549E+02
  29.973  0.7320E+00  0.1550E+02
  29.983  0.7328E+00  0.1550E+02
  29.993  0.7335E+00  0.1551E+02
  30.003  0.7341E+00  0.1552E+02
  30.013  0.7346E+00  0.1553E+02
  30.023  0.7349E+00  0.1553E+02
  30.033  0.7352E+00  0.1554E+02
  30.043  0.7354E+00  0.1555E+02
  30.053  0.7355E+00  0.1556E+02
  30.063  0.7355E+00  0.1556E+02
  30.073  0.7355E+00  0.1557E+02
  30.083  0.7353E+00  0.1558E+02
  30.093  0.7351E+00  0.1558E+02
  30.103  0.7348E+00  0.1559E+02
  30.113  0.7345E+00  0.1560E+02
  30.123  0.7341E+00  0.1561E+02
  30.133  0.7336E+00  0.1561E+02
  30.143  0.7331E+00  0.1562E+02
  30.153  0.7326E+00  0.1563E+02
  30.163  0.7320E+00  0.1564E+02
  30.173  0.7314E+00  0.1564E+02
  30.183  0.7308E+00  0.1565E+02
  30.193  0.7302E+00  0.1566E+02
  30.203  0.7296E+00  0.1567E+02
  30.213  0.7289E+00  0.1567E+02
  30.223  0.7283E+00  0.1568E+02
  30.233  0.7278E+00  0.1569E+02
  30.243  0.7272E+00  0.1569E+02
  30.253  0.7267E+00  0.1570E+02
  30.263  0.7262E+00  0.1571E+02
  30.273  0.7257E+00  0.1572E+02
  30.283  0.7254E+00  0.1572E+02
  30.293  0.7250E+00  0.1573E+02
  30.303  0.7248E+00  0.1574E+02
  30.313  0.7246E+00  0.1575E+02
  30.323  0.7245E+00  0.1575E+02
  30.333  0.7245E+00  0.1576E+02
  30.343  0.7246E+00  0.1577E+02
  30.353  0.7248E+00  0.1577E+02
  30.363  0.7251E+00  0.1578E+02
  30.373  0.7255E+00  0.1579E+02
  30.383  0.7261E+00  0.1580E+02
  30.393  0.7267E+00  0.1580E+02
  30.403  0.7275E+00  0.1581E+02
  30.413  0.7284E+00  0.1582E+02
  30.423  0.7295E+00  0.1583E+02
  30.433  0.7306E+00  0.1583E+02
  30.443  0.7320E+00  0.1584E+02
  30.453  0.7335E+00  0.1585E+02
  30.463  0.7351E+00  0.1585E+02
  30.473  0.7368E+00  0.1586E+02
  30.483  0.7388E+00  0.1587E+02
  30.493  0.7408E+00  0.1588E+02
  30.503  0.7431E+00  0.1588E+02
  30.513  0.7454E+00  0.1589E+02
  30.523  0.7479E+00  0.1590E+02
  30.533  0.7506E+00  0.1591E+02
  30.543  0.7534E+00  0.1591E+02
  30.553  0.7564E+00  0.1592E+02
  30.563  0.7595E+00  0.1593E+02
  30.573  0.7627E+00  0.1594E+02
  30.583  0.7660E+00  0.1594E+02
  30.593  0.7695E+00  0.1595E+02
  30.603  0.7731E+00  0.1596E+02
  30.613  0.7769E+00  0.1597E+02
  30.623  0.7807E+00  0.1598E+02
  30.633  0.7847E+00  0.1598E+02
  30.643  0.7887E+00  0.1599E+02
  30.653  0.7928E+00  0.1600E+02
  30.663  0.7970E+00  0.1601E+02
  30.673  0.8013E+00  0.1602E+02
  30.683  0.8057E+00  0.1602E+02
  30.693  0.8101E+00  0.1603E+02
  30.703  0.8145E+00  0.1604E+02
  30.713  0.8190E+00  0.1605E+02
  30.723  0.8235E+00  0.1606E+02
  30.733  0.8280E+00  0.1606E+02
  30.743  0.8326E+00  0.1607E+02
  30.753  0.8371E+00  0.1608E+02
  30.763  0.8416E+00  0.1609E+02
  30.773  0.8461E+00  0.1610E+02
  30.783  0.8505E+00  0.1611E+02
  30.793  0.8549E+00  0.1611E+02
  30.803  0.8592E+00  0.1612E+02
  30.813  0.8635E+00  0.1613E+02
  30.823  0.8677E+00  0.1614E+02
  30.833  0.8717E+00  0.1615E+02
  30.843  0.8757E+00  0.1616E+02
  30.853  0.8796E+00  0.1617E+02
  30.863  0.8833E+00  0.1618E+02
  30.873  0.8869E+00  0.1618E+02
  30.883  0.8903E+00  0.1619E+02
  30.893  0.8936E+00  0.1620E+02
  30.903  0.8967E+00  0.1621E+02
  30.913  0.8996E+00  0.1622E+02
  30.923  0.9023E+00  0.1623E+02
  30.933  0.9048E+00  0.1624E+02
  30.943  0.9071E+00  0.1625E+02
  30.953  0.9092E+00  0.1626E+02
  30.963  0.9111E+00  0.1627E+02
  30.973  0.9128E+00  0.1627E+02
  30.983  0.9142E+00  0.1628E+02
  30.993  0.9153E+00  0.1629E+02
  31.003  0.9162E+00  0.1630E+02
  31.013  0.9169E+00  0.1631E+02
  31.023  0.9173E+00  0.1632E+02
  31.033  0.9174E+00  0.1633E+02
  31.043  0.9173E+00  0.1634E+02
  31.053  0.9168E+00  0.1635E+02
  31.063  0.9161E+00  0.1636E+02
  31.073  0.9152E+00  0.1637E+02
  31.083  0.9139E+00  0.1638E+02
  31.093  0.9124E+00  0.1638E+02
  31.103  0.9106E+00  0.1639E+02
  31.113  0.9085E+00  0.1640E+02
  31.123  0.9062E+00  0.1641E+02
  31.133  0.9036E+00  0.1642E+02
  31.143  0.9007E+00  0.1643E+02
  31.153  0.8975E+00  0.1644E+02
  31.163  0.8940E+00  0.1645E+02
  31.173  0.8903E+00  0.1646E+02
  31.183  0.8864E+00  0.1647E+02
  31.193  0.8821E+00  0.1647E+02
  31.203  0.8777E+00  0.1648E+02
  31.213  0.8729E+00  0.1649E+02
  31.223  0.8680E+00  0.1650E+02
  31.233  0.8628E+00  0.1651E+02
  31.243  0.8574E+00  0.1652E+02
  31.253  0.8518E+00  0.1653E+02
  31.263  0.8459E+00  0.1653E+02
  31.273  0.8399E+00  0.1654E+02
  31.283  0.8336E+00  0.1655E+02
  31.293  0.8272E+00  0.1656E+02
  31.303  0.8206E+00  0.1657E+02
  31.313  0.8138E+00  0.1658E+02
  31.323  0.8069E+00  0.1658E+02
  31.333  0.7998E+00  0.1659E+02
  31.343  0.7926E+00  0.1660E+02
  31.353  0.7852E+00  0.1661E+02
  31.363  0.7777E+00  0.1662E+02
  31.373  0.7701E+00  0.1662E+02
  31.383  0.7624E+00  0.1663E+02
  31.393  0.7546E+00  0.1664E+02
  31.403  0.7467E+00  0.1665E+02
  31.413  0.7387E+00  0.1665E+02
  31.423  0.7307E+00  0.1666E+02
  31.433  0.7226E+00  0.1667E+02
  31.443  0.7144E+00  0.1668E+02
  31.453  0.7062E+00  0.1668E+02
  31.463  0.6980E+00  0.1669E+02
  31.473  0.6898E+00  0.1670E+02
  31.483  0.6815E+00  0.1670E+02
  31.493  0.6733E+00  0.1671E+02
  31.503  0.6650E+00  0.1672E+02
  31.513  0.6568E+00  0.1672E+02
  31.523  0.6485E+00  0.1673E+02
  31.533  0.6403E+00  0.1674E+02
  31.543  0.6322E+00  0.1674E+02
  31.553  0.6240E+00  0.1675E+02
  31.563  0.6160E+00  0.1675E+02
  31.573  0.6080E+00  0.1676E+02
  31.583  0.6000E+00  0.1677E+02
  31.593  0.5921E+00  0.1677E+02
  31.603  0.5843E+00  0.1678E+02
  31.613  0.5766E+00  0.1678E+02
  31.623  0.5690E+00  0.1679E+02
  31.633  0.5615E+00  0.1680E+02
  31.643  0.5540E+00  0.1680E+02
  31.653  0.5467E+00  0.1681E+02
  31.663  0.5395E+00  0.1681E+02
  31.673  0.5324E+00  0.1682E+02
  31.683  0.5254E+00  0.1682E+02
  31.693  0.5186E+00  0.1683E+02
  31.703  0.5118E+00  0.1683E+02
  31.713  0.5053E+00  0.1684E+02
  31.723  0.4988E+00  0.1684E+02
  31.733  0.4925E+00  0.1685E+02
  31.743  0.4863E+00  0.1685E+02
  31.753  0.4803E+00  0.1686E+02
  31.763  0.4744E+00  0.1686E+02
  31.773  0.4687E+00  0.1687E+02
  31.783  0.4631E+00  0.1687E+02
  31.793  0.4577E+00  0.1688E+02
  31.803  0.4525E+00  0.1688E+02
  31.813  0.4474E+00  0.1689E+02
  31.823  0.4425E+00  0.1689E+02
  31.833  0.4377E+00  0.1689E+02
  31.843  0.4331E+00  0.1690E+02
  31.853  0.4287E+00  0.1690E+02
  31.863  0.4245E+00  0.1691E+02
  31.873  0.4204E+00  0.1691E+02
  31.883  0.4165E+00  0.1692E+02
  31.893  0.4127E+00  0.1692E+02
  31.903  0.4092E+00  0.1692E+02
  31.913  0.4058E+00  0.1693E+02
  31.923  0.4025E+00  0.1693E+02
  31.933  0.3995E+00  0.1694E+02
  31.943  0.3966E+00  0.1694E+02
  31.953  0.3939E+00  0.1694E+02
  31.963  0.3913E+00  0.1695E+02
  31.973  0.3889E+00  0.1695E+02
  31.983  0.3867E+00  0.1696E+02
  31.993  0.3846E+00  0.1696E+02
  32.003  0.3827E+00  0.1696E+02
  32.013  0.3810E+00  0.1697E+02
  32.023  0.3794E+00  0.1697E+02
  32.033  0.3780E+00  0.1697E+02
  32.043  0.3767E+00  0.1698E+02
  32.053  0.3756E+00  0.1698E+02
  32.063  0.3746E+00  0.1699E+02
  32.073  0.3738E+00  0.1699E+02
  32.083  0.3731E+00  0.1699E+02
  32.093  0.3726E+00  0.1700E+02
  32.103  0.3722E+00  0.1700E+02
  32.113  0.3719E+00  0.1700E+02
  32.123  0.3717E+00  0.1701E+02
  32.133  0.3717E+00  0.1701E+02
  32.143  0.3718E+00  0.1702E+02
  32.153  0.3720E+00  0.1702E+02
  32.163  0.3723E+00  0.1702E+02
  32.173  0.3727E+00  0.1703E+02
  32.183  0.3733E+00  0.1703E+02
  32.193  0.3739E+00  0.1703E+02
  32.203  0.3746E+00  0.1704E+02
  32.213  0.3755E+00  0.1704E+02
  32.223  0.3764E+00  0.1705E+02
  32.233  0.3774E+00  0.1705E+02
  32.243  0.3784E+00  0.1705E+02
  32.253  0.3795E+00  0.1706E+02
  32.263  0.3808E+00  0.1706E+02
  32.273  0.3820E+00  0.1706E+02
  32.283  0.3833E+00  0.1707E+02
  32.293  0.3847E+00  0.1707E+02
  32.303  0.3861E+00  0.1708E+02
  32.313  0.3876E+00  0.1708E+02
  32.323  0.3891E+00  0.1708E+02
  32.333  0.3907E+00  0.1709E+02
  32.343  0.3922E+00  0.1709E+02
  32.353  0.3938E+00  0.1710E+02
  32.363  0.3955E+00  0.1710E+02
  32.373  0.3971E+00  0.1710E+02
  32.383  0.3987E+00  0.1711E+02
  32.393  0.4004E+00  0.1711E+02
  32.403  0.4021E+00  0.1712E+02
  32.413  0.4037E+00  0.1712E+02
  32.423  0.4054E+00  0.1712E+02
  32.433  0.4071E+00  0.1713E+02
  32.443  0.4087E+00  0.1713E+02
  32.453  0.4103E+00  0.1714E+02
  32.463  0.4120E+00  0.1714E+02
  32.473  0.4136E+00  0.1714E+02
  32.483  0.4151E+00  0.1715E+02
  32.493  0.4167E+00  0.1715E+02
  32.503  0.4182E+00  0.1716E+02
  32.513  0.4197E+00  0.1716E+02
  32.523  0.4211E+00  0.1716E+02
  32.533  0.4225E+00  0.1717E+02
  32.543  0.4239E+00  0.1717E+02
  32.553  0.4252E+00  0.1718E+02
  32.563  0.4265E+00  0.1718E+02
  32.573  0.4277E+00  0.1719E+02
  32.583  0.4289E+00  0.1719E+02
  32.593  0.4300E+00  0.1719E+02
  32.603  0.4311E+00  0.1720E+02
  32.613  0.4321E+00  0.1720E+02
  32.623  0.4331E+00  0.1721E+02
  32.633  0.4339E+00  0.1721E+02
  32.643  0.4348E+00  0.1722E+02
  32.653  0.4355E+00  0.1722E+02
  32.663  0.4362E+00  0.1722E+02
  32.673  0.4369E+00  0.1723E+02
  32.683  0.4374E+00  0.1723E+02
  32.693  0.4379E+00  0.1724E+02
  32.703  0.4383E+00  0.1724E+02
  32.713  0.4386E+00  0.1725E+02
  32.723  0.4389E+00  0.1725E+02
  32.733  0.4391E+00  0.1726E+02
  32.743  0.4392E+00  0.1726E+02
  32.753  0.4392E+00  0.1726E+02
  32.763  0.4391E+00  0.1727E+02
  32.773  0.4390E+00  0.1727E+02
  32.783  0.4387E+00  0.1728E+02
  32.793  0.4384E+00  0.1728E+02
  32.803  0.4380E+00  0.1729E+02
  32.813  0.4375E+00  0.1729E+02
  32.823  0.4369E+00  0.1729E+02
  32.833  0.4363E+00  0.1730E+02
  32.843  0.4355E+00  0.1730E+02
  32.853  0.4346E+00  0.1731E+02
  32.863  0.4337E+00  0.1731E+02
  32.873  0.4326E+00  0.1732E+02
  32.883  0.4314E+00  0.1732E+02
  32.893  0.4302E+00  0.1733E+02
  32.903  0.4289E+00  0.1733E+02
  32.913  0.4274E+00  0.1733E+02
  32.923  0.4259E+00  0.1734E+02
  32.933  0.4242E+00  0.1734E+02
  32.943  0.4225E+00  0.1735E+02
  32.953  0.4206E+00  0.1735E+02
  32.963  0.4187E+00  0.1735E+02
  32.973  0.4167E+00  0.1736E+02
  32.983  0.4145E+00  0.1736E+02
  32.993  0.4123E+00  0.1737E+02
  33.003  0.4099E+00  0.1737E+02
  33.013  0.4075E+00  0.1738E+02
  33.023  0.4049E+00  0.1738E+02
  33.033  0.4023E+00  0.1738E+02
  33.043  0.3996E+00  0.1739E+02
  33.053  0.3968E+00  0.1739E+02
  33.063  0.3938E+00  0.1740E+02
  33.073  0.3908E+00  0.1740E+02
  33.083  0.3877E+00  0.1740E+02
  33.093  0.3845E+00  0.1741E+02
  33.103  0.3812E+00  0.1741E+02
  33.113  0.3779E+00  0.1741E+02
  33.123  0.3744E+00  0.1742E+02
  33.133  0.3709E+00  0.1742E+02
  33.143  0.3673E+00  0.1743E+02
  33.153  0.3636E+00  0.1743E+02
  33.163  0.3599E+00  0.1743E+02
  33.173  0.3561E+00  0.1744E+02
  33.183  0.3522E+00  0.1744E+02
  33.193  0.3482E+00  0.1744E+02
  33.203  0.3442E+00  0.1745E+02
  33.213  0.3401E+00  0.1745E+02
  33.223  0.3360E+00  0.1745E+02
  33.233  0.3319E+00  0.1746E+02
  33.243  0.3277E+00  0.1746E+02
  33.253  0.3234E+00  0.1746E+02
  33.263  0.3191E+00  0.1747E+02
  33.273  0.3148E+00  0.1747E+02
  33.283  0.3105E+00  0.1747E+02
  33.293  0.3061E+00  0.1748E+02
  33.303  0.3018E+00  0.1748E+02
  33.313  0.2974E+00  0.1748E+02
  33.323  0.2930E+00  0.1749E+02
  33.333  0.2885E+00  0.1749E+02
  33.343  0.2841E+00  0.1749E+02
  33.353  0.2797E+00  0.1749E+02
  33.363  0.2753E+00  0.1750E+02
  33.373  0.2710E+00  0.1750E+02
  33.383  0.2666E+00  0.1750E+02
  33.393  0.2622E+00  0.1750E+02
  33.403  0.2579E+00  0.1751E+02
  33.413  0.2536E+00  0.1751E+02
  33.423  0.2494E+00  0.1751E+02
  33.433  0.2452E+00  0.1751E+02
  33.443  0.2410E+00  0.1752E+02
  33.453  0.2369E+00  0.1752E+02
  33.463  0.2328E+00  0.1752E+02
  33.473  0.2288E+00  0.1752E+02
  33.483  0.2248E+00  0.1753E+02
  33.493  0.2209E+00  0.1753E+02
  33.503  0.2170E+00  0.1753E+02
  33.513  0.2132E+00  0.1753E+02
  33.523  0.2095E+00  0.1753E+02
  33.533  0.2058E+00  0.1754E+02
  33.543  0.2023E+00  0.1754E+02
  33.553  0.1988E+00  0.1754E+02
  33.563  0.1953E+00  0.1754E+02
  33.573  0.1920E+00  0.1754E+02
  33.583  0.1887E+00  0.1755E+02
  33.593  0.1855E+00  0.1755E+02
  33.603  0.1824E+00  0.1755E+02
  33.613  0.1793E+00  0.1755E+02
  33.623  0.1764E+00  0.1755E+02
  33.633  0.1735E+00  0.1756E+02
  33.643  0.1707E+00  0.1756E+02
  33.653  0.1680E+00  0.1756E+02
  33.663  0.1654E+00  0.1756E+02
  33.673  0.1629E+00  0.1756E+02
  33.683  0.1604E+00  0.1756E+02
  33.693  0.1580E+00  0.1757E+02
  33.703  0.1557E+00  0.1757E+02
  33.713  0.1535E+00  0.1757E+02
  33.723  0.1514E+00  0.1757E+02
  33.733  0.1493E+00  0.1757E+02
  33.743  0.1473E+00  0.1757E+02
  33.753  0.1454E+00  0.1757E+02
  33.763  0.1435E+00  0.1758E+02
  33.773  0.1417E+00  0.1758E+02
  33.783  0.1400E+00  0.1758E+02
  33.793  0.1384E+00  0.1758E+02
  33.803  0.1368E+00  0.1758E+02
  33.813  0.1353E+00  0.1758E+02
  33.823  0.1338E+00  0.1758E+02
  33.833  0.1324E+00  0.1759E+02
  33.843  0.1310E+00  0.1759E+02
  33.853  0.1297E+00  0.1759E+02
  33.863  0.1284E+00  0.1759E+02
  33.873  0.1271E+00  0.1759E+02
  33.883  0.1260E+00  0.1759E+02
  33.893  0.1248E+00  0.1759E+02
  33.903  0.1237E+00  0.1759E+02
  33.913  0.1226E+00  0.1760E+02
  33.923  0.1215E+00  0.1760E+02
  33.933  0.1205E+00  0.1760E+02
  33.943  0.1194E+00  0.1760E+02
  33.953  0.1184E+00  0.1760E+02
  33.963  0.1175E+00  0.1760E+02
  33.973  0.1165E+00  0.1760E+02
  33.983  0.1155E+00  0.1760E+02
  33.993  0.1146E+00  0.1761E+02
  34.003  0.1137E+00  0.1761E+02
  34.013  0.1127E+00  0.1761E+02
  34.023  0.1118E+00  0.1761E+02
  34.033  0.1108E+00  0.1761E+02
  34.043  0.1099E+00  0.1761E+02
  34.053  0.1090E+00  0.1761E+02
  34.063  0.1080E+00  0.1761E+02
  34.073  0.1071E+00  0.1761E+02
  34.083  0.1061E+00  0.1761E+02
  34.093  0.1051E+00  0.1762E+02
  34.103  0.1042E+00  0.1762E+02
  34.113  0.1032E+00  0.1762E+02
  34.123  0.1022E+00  0.1762E+02
  34.133  0.1011E+00  0.1762E+02
  34.143  0.1001E+00  0.1762E+02
  34.153  0.9906E-01  0.1762E+02
  34.163  0.9800E-01  0.1762E+02
  34.173  0.9692E-01  0.1762E+02
  34.183  0.9582E-01  0.1762E+02
  34.193  0.9471E-01  0.1763E+02
  34.203  0.9358E-01  0.1763E+02
  34.213  0.9244E-01  0.1763E+02
  34.223  0.9128E-01  0.1763E+02
  34.233  0.9011E-01  0.1763E+02
  34.243  0.8893E-01  0.1763E+02
  34.253  0.8774E-01  0.1763E+02
  34.263  0.8653E-01  0.1763E+02
  34.273  0.8532E-01  0.1763E+02
  34.283  0.8409E-01  0.1763E+02
  34.293  0.8286E-01  0.1763E+02
  34.303  0.8163E-01  0.1764E+02
  34.313  0.8038E-01  0.1764E+02
  34.323  0.7914E-01  0.1764E+02
  34.333  0.7790E-01  0.1764E+02
  34.343  0.7666E-01  0.1764E+02
  34.353  0.7542E-01  0.1764E+02
  34.363  0.7418E-01  0.1764E+02
  34.373  0.7296E-01  0.1764E+02
  34.383  0.7174E-01  0.1764E+02
  34.393  0.7053E-01  0.1764E+02
  34.403  0.6934E-01  0.1764E+02
  34.413  0.6816E-01  0.1764E+02
  34.423  0.6701E-01  0.1764E+02
  34.433  0.6587E-01  0.1765E+02
  34.443  0.6475E-01  0.1765E+02
  34.453  0.6367E-01  0.1765E+02
  34.463  0.6260E-01  0.1765E+02
  34.473  0.6157E-01  0.1765E+02
  34.483  0.6058E-01  0.1765E+02
  34.493  0.5961E-01  0.1765E+02
  34.503  0.5869E-01  0.1765E+02
  34.513  0.5780E-01  0.1765E+02
  34.523  0.5696E-01  0.1765E+02
  34.533  0.5616E-01  0.1765E+02
  34.543  0.5541E-01  0.1765E+02
  34.553  0.5471E-01  0.1765E+02
  34.563  0.5405E-01  0.1765E+02
  34.573  0.5346E-01  0.1765E+02
  34.583  0.5291E-01  0.1765E+02
  34.593  0.5243E-01  0.1765E+02
  34.603  0.5201E-01  0.1765E+02
  34.613  0.5165E-01  0.1766E+02
  34.623  0.5135E-01  0.1766E+02
  34.633  0.5112E-01  0.1766E+02
  34.643  0.5095E-01  0.1766E+02
  34.653  0.5086E-01  0.1766E+02
  34.663  0.5083E-01  0.1766E+02
  34.673  0.5088E-01  0.1766E+02
  34.683  0.5101E-01  0.1766E+02
  34.693  0.5121E-01  0.1766E+02
  34.703  0.5148E-01  0.1766E+02
  34.713  0.5184E-01  0.1766E+02
  34.723  0.5227E-01  0.1766E+02
  34.733  0.5279E-01  0.1766E+02
  34.743  0.5339E-01  0.1766E+02
  34.753  0.5407E-01  0.1766E+02
  34.763  0.5483E-01  0.1766E+02
  34.773  0.5568E-01  0.1766E+02
  34.783  0.5662E-01  0.1766E+02
  34.793  0.5764E-01  0.1766E+02
  34.803  0.5875E-01  0.1767E+02
  34.813  0.5994E-01  0.1767E+02
  34.823  0.6123E-01  0.1767E+02
  34.833  0.6260E-01  0.1767E+02
  34.843  0.6406E-01  0.1767E+02
  34.853  0.6560E-01  0.1767E+02
  34.863  0.6724E-01  0.1767E+02
  34.873  0.6896E-01  0.1767E+02
  34.883  0.7077E-01  0.1767E+02
  34.893  0.7266E-01  0.1767E+02
  34.903  0.7464E-01  0.1767E+02
  34.913  0.7671E-01  0.1767E+02
  34.923  0.7886E-01  0.1767E+02
  34.933  0.8110E-01  0.1767E+02
  34.943  0.8342E-01  0.1768E+02
  34.953  0.8582E-01  0.1768E+02
  34.963  0.8831E-01  0.1768E+02
  34.973  0.9087E-01  0.1768E+02
  34.983  0.9351E-01  0.1768E+02
  34.993  0.9623E-01  0.1768E+02
  35.003  0.9903E-01  0.1768E+02
  35.013  0.1019E+00  0.1768E+02
  35.023  0.1048E+00  0.1768E+02
  35.033  0.1079E+00  0.1768E+02
  35.043  0.1109E+00  0.1769E+02
  35.053  0.1141E+00  0.1769E+02
  35.063  0.1173E+00  0.1769E+02
  35.073  0.1206E+00  0.1769E+02
  35.083  0.1239E+00  0.1769E+02
  35.093  0.1273E+00  0.1769E+02
  35.103  0.1307E+00  0.1769E+02
  35.113  0.1342E+00  0.1769E+02
  35.123  0.1378E+00  0.1770E+02
  35.133  0.1414E+00  0.1770E+02
  35.143  0.1450E+00  0.1770E+02
  35.153  0.1487E+00  0.1770E+02
  35.163  0.1524E+00  0.1770E+02
  35.173  0.1561E+00  0.1770E+02
  35.183  0.1599E+00  0.1770E+02
  35.193  0.1637E+00  0.1771E+02
  35.203  0.1675E+00  0.1771E+02
  35.213  0.1713E+00  0.1771E+02
  35.223  0.1752E+00  0.1771E+02
  35.233  0.1791E+00  0.1771E+02
  35.243  0.1829E+00  0.1771E+02
  35.253  0.1868E+00  0.1772E+02
  35.263  0.1907E+00  0.1772E+02
  35.273  0.1946E+00  0.1772E+02
  35.283  0.1984E+00  0.1772E+02
  35.293  0.2023E+00  0.1772E+02
  35.303  0.2061E+00  0.1773E+02
  35.313  0.2100E+00  0.1773E+02
  35.323  0.2138E+00  0.1773E+02
  35.333  0.2175E+00  0.1773E+02
  35.343  0.2213E+00  0.1773E+02
  35.353  0.2250E+00  0.1774E+02
  35.363  0.2286E+00  0.1774E+02
  35.373  0.2322E+00  0.1774E+02
  35.383  0.2358E+00  0.1774E+02
  35.393  0.2393E+00  0.1775E+02
  35.403  0.2428E+00  0.1775E+02
  35.413  0.2461E+00  0.1775E+02
  35.423  0.2495E+00  0.1775E+02
  35.433  0.2527E+00  0.1776E+02
  35.443  0.2559E+00  0.1776E+02
  35.453  0.2590E+00  0.1776E+02
  35.463  0.2620E+00  0.1776E+02
  35.473  0.2649E+00  0.1777E+02
  35.483  0.2678E+00  0.1777E+02
  35.493  0.2705E+00  0.1777E+02
  35.503  0.2732E+00  0.1778E+02
  35.513  0.2757E+00  0.1778E+02
  35.523  0.2782E+00  0.1778E+02
  35.533  0.2805E+00  0.1778E+02
  35.543  0.2827E+00  0.1779E+02
  35.553  0.2849E+00  0.1779E+02
  35.563  0.2868E+00  0.1779E+02
  35.573  0.2887E+00  0.1779E+02
  35.583  0.2905E+00  0.1780E+02
  35.593  0.2921E+00  0.1780E+02
  35.603  0.2936E+00  0.1780E+02
  35.613  0.2950E+00  0.1781E+02
  35.623  0.2962E+00  0.1781E+02
  35.633  0.2973E+00  0.1781E+02
  35.643  0.2983E+00  0.1782E+02
  35.653  0.2991E+00  0.1782E+02
  35.663  0.2998E+00  0.1782E+02
  35.673  0.3003E+00  0.1782E+02
  35.683  0.3007E+00  0.1783E+02
  35.693  0.3010E+00  0.1783E+02
  35.703  0.3011E+00  0.1783E+02
  35.713  0.3011E+00  0.1784E+02
  35.723  0.3009E+00  0.1784E+02
  35.733  0.3006E+00  0.1784E+02
  35.743  0.3001E+00  0.1785E+02
  35.753  0.2995E+00  0.1785E+02
  35.763  0.2988E+00  0.1785E+02
  35.773  0.2979E+00  0.1785E+02
  35.783  0.2969E+00  0.1786E+02
  35.793  0.2957E+00  0.1786E+02
  35.803  0.2944E+00  0.1786E+02
  35.813  0.2929E+00  0.1787E+02
  35.823  0.2914E+00  0.1787E+02
  35.833  0.2896E+00  0.1787E+02
  35.843  0.2878E+00  0.1787E+02
  35.853  0.2858E+00  0.1788E+02
  35.863  0.2837E+00  0.1788E+02
  35.873  0.2815E+00  0.1788E+02
  35.883  0.2791E+00  0.1789E+02
  35.893  0.2766E+00  0.1789E+02
  35.903  0.2740E+00  0.1789E+02
  35.913  0.2713E+00  0.1789E+02
  35.923  0.2685E+00  0.1790E+02
  35.933  0.2656E+00  0.1790E+02
  35.943  0.2626E+00  0.1790E+02
  35.953  0.2595E+00  0.1791E+02
  35.963  0.2563E+00  0.1791E+02
  35.973  0.2530E+00  0.1791E+02
  35.983  0.2496E+00  0.1791E+02
  35.993  0.2461E+00  0.1792E+02
  36.003  0.2425E+00  0.1792E+02
  36.013  0.2389E+00  0.1792E+02
  36.023  0.2352E+00  0.1792E+02
  36.033  0.2315E+00  0.1792E+02
  36.043  0.2277E+00  0.1793E+02
  36.053  0.2238E+00  0.1793E+02
  36.063  0.2199E+00  0.1793E+02
  36.073  0.2159E+00  0.1793E+02
  36.083  0.2119E+00  0.1794E+02
  36.093  0.2079E+00  0.1794E+02
  36.103  0.2038E+00  0.1794E+02
  36.113  0.1997E+00  0.1794E+02
  36.123  0.1956E+00  0.1794E+02
  36.133  0.1914E+00  0.1795E+02
  36.143  0.1873E+00  0.1795E+02
  36.153  0.1831E+00  0.1795E+02
  36.163  0.1789E+00  0.1795E+02
  36.173  0.1748E+00  0.1795E+02
  36.183  0.1706E+00  0.1795E+02
  36.193  0.1664E+00  0.1796E+02
  36.203  0.1623E+00  0.1796E+02
  36.213  0.1582E+00  0.1796E+02
  36.223  0.1541E+00  0.1796E+02
  36.233  0.1500E+00  0.1796E+02
  36.243  0.1459E+00  0.1796E+02
  36.253  0.1419E+00  0.1797E+02
  36.263  0.1379E+00  0.1797E+02
  36.273  0.1339E+00  0.1797E+02
  36.283  0.1300E+00  0.1797E+02
  36.293  0.1262E+00  0.1797E+02
  36.303  0.1223E+00  0.1797E+02
  36.313  0.1186E+00  0.1797E+02
  36.323  0.1148E+00  0.1797E+02
  36.333  0.1112E+00  0.1798E+02
  36.343  0.1076E+00  0.1798E+02
  36.353  0.1040E+00  0.1798E+02
  36.363  0.1005E+00  0.1798E+02
  36.373  0.9709E-01  0.1798E+02
  36.383  0.9372E-01  0.1798E+02
  36.393  0.9042E-01  0.1798E+02
  36.403  0.8718E-01  0.1798E+02
  36.413  0.8401E-01  0.1798E+02
  36.423  0.8091E-01  0.1798E+02
  36.433  0.7788E-01  0.1798E+02
  36.443  0.7492E-01  0.1799E+02
  36.453  0.7203E-01  0.1799E+02
  36.463  0.6921E-01  0.1799E+02
  36.473  0.6647E-01  0.1799E+02
  36.483  0.6379E-01  0.1799E+02
  36.493  0.6119E-01  0.1799E+02
  36.503  0.5866E-01  0.1799E+02
  36.513  0.5620E-01  0.1799E+02
  36.523  0.5382E-01  0.1799E+02
  36.533  0.5150E-01  0.1799E+02
  36.543  0.4925E-01  0.1799E+02
  36.553  0.4708E-01  0.1799E+02
  36.563  0.4497E-01  0.1799E+02
  36.573  0.4294E-01  0.1799E+02
  36.583  0.4097E-01  0.1799E+02
  36.593  0.3907E-01  0.1799E+02
  36.603  0.3723E-01  0.1799E+02
  36.613  0.3546E-01  0.1799E+02
  36.623  0.3376E-01  0.1799E+02
  36.633  0.3211E-01  0.1799E+02
  36.643  0.3053E-01  0.1800E+02
  36.653  0.2901E-01  0.1800E+02
  36.663  0.2755E-01  0.1800E+02
  36.673  0.2614E-01  0.1800E+02
  36.683  0.2480E-01  0.1800E+02
  36.693  0.2351E-01  0.1800E+02
  36.703  0.2227E-01  0.1800E+02
  36.713  0.2108E-01  0.1800E+02
  36.723  0.1995E-01  0.1800E+02
  36.733  0.1886E-01  0.1800E+02
  36.743  0.1783E-01  0.1800E+02
  36.753  0.1684E-01  0.1800E+02
  36.763  0.1589E-01  0.1800E+02
  36.773  0.1499E-01  0.1800E+02
  36.783  0.1414E-01  0.1800E+02
  36.793  0.1332E-01  0.1800E+02
  36.803  0.1254E-01  0.1800E+02
  36.813  0.1180E-01  0.1800E+02
  36.823  0.1110E-01  0.1800E+02
  36.833  0.1043E-01  0.1800E+02
  36.843  0.9799E-02  0.1800E+02
  36.853  0.9199E-02  0.1800E+02
  36.863  0.8630E-02  0.1800E+02
  36.873  0.8092E-02  0.1800E+02
  36.883  0.7582E-02  0.1800E+02
  36.893  0.7100E-02  0.1800E+02
  36.903  0.6645E-02  0.1800E+02
  36.913  0.6215E-02  0.1800E+02
  36.923  0.5810E-02  0.1800E+02
  36.933  0.5427E-02  0.1800E+02
  36.943  0.5066E-02  0.1800E+02
  36.953  0.4727E-02  0.1800E+02
  36.963  0.4407E-02  0.1800E+02
  36.973  0.4107E-02  0.1800E+02
  36.983  0.3825E-02  0.1800E+02
  36.993  0.3560E-02  0.1800E+02
  37.003  0.3311E-02  0.1800E+02
  37.013  0.3077E-02  0.1800E+02
  37.023  0.2859E-02  0.1800E+02
  37.033  0.2654E-02  0.1800E+02
  37.043  0.2462E-02  0.1800E+02
  37.053  0.2283E-02  0.1800E+02
  37.063  0.2116E-02  0.1800E+02
  37.073  0.1959E-02  0.1800E+02
  37.083  0.1813E-02  0.1800E+02
  37.093  0.1677E-02  0.1800E+02
  37.103  0.1550E-02  0.1800E+02
  37.113  0.1432E-02  0.1800E+02
  37.123  0.1322E-02  0.1800E+02
  37.133  0.1219E-02  0.1800E+02
  37.143  0.1124E-02  0.1800E+02
  37.153  0.1036E-02  0.1800E+02
  37.163  0.9540E-03  0.1800E+02
  37.173  0.8779E-03  0.1800E+02
  37.183  0.8074E-03  0.1800E+02
  37.193  0.7421E-03  0.1800E+02
  37.203  0.6816E-03  0.1800E+02
  37.213  0.6257E-03  0.1800E+02
  37.223  0.5740E-03  0.1800E+02
  37.233  0.5262E-03  0.1800E+02
  37.243  0.4821E-03  0.1800E+02
  37.253  0.4414E-03  0.1800E+02
  37.263  0.4039E-03  0.1800E+02
  37.273  0.3693E-03  0.1800E+02
  37.283  0.3375E-03  0.1800E+02
  37.293  0.3083E-03  0.1800E+02
  37.303  0.2814E-03  0.1800E+02
  37.313  0.2566E-03  0.1800E+02
  37.323  0.2339E-03  0.1800E+02
  37.333  0.2131E-03  0.1800E+02
  37.343  0.1940E-03  0.1800E+02
  37.353  0.1765E-03  0.1800E+02
  37.363  0.1605E-03  0.1800E+02
  37.373  0.1458E-03  0.1800E+02
  37.383  0.1324E-03  0.1800E+02
  37.393  0.1202E-03  0.1800E+02
  37.403  0.1090E-03  0.1800E+02
  37.413  0.9876E-04  0.1800E+02
  37.423  0.8945E-04  0.1800E+02
  37.433  0.8097E-04  0.1800E+02
  37.443  0.7324E-04  0.1800E+02
  37.453  0.6621E-04  0.1800E+02
  37.463  0.5981E-04  0.1800E+02
  37.473  0.5400E-04  0.1800E+02
  37.483  0.4872E-04  0.1800E+02
  37.493  0.4393E-04  0.1800E+02
  37.503  0.3959E-04  0.1800E+02
  37.513  0.3565E-04  0.1800E+02
  37.523  0.3208E-04  0.1800E+02
  37.533  0.2885E-04  0.1800E+02
  37.543  0.2593E-04  0.1800E+02
  37.553  0.2329E-04  0.1800E+02
  37.563  0.2091E-04  0.1800E+02
  37.573  0.1875E-04  0.1800E+02
  37.583  0.1681E-04  0.1800E+02
  37.593  0.1506E-04  0.1800E+02
  37.603  0.1348E-04  0.1800E+02
  37.613  0.1206E-04  0.1800E+02
  37.623  0.1079E-04  0.1800E+02
