#  E (eV)   dos(E)     Int dos(E) EFermi =   17.639 eV
  -9.238  0.1185E-05  0.1185E-07
  -9.228  0.1322E-05  0.2507E-07
  -9.218  0.1475E-05  0.3982E-07
  -9.208  0.1644E-05  0.5626E-07
  -9.198  0.1831E-05  0.7457E-07
  -9.188  0.2039E-05  0.9496E-07
  -9.178  0.2268E-05  0.1176E-06
  -9.168  0.2521E-05  0.1428E-06
  -9.158  0.2801E-05  0.1709E-06
  -9.148  0.3109E-05  0.2019E-06
  -9.138  0.3449E-05  0.2364E-06
  -9.128  0.3824E-05  0.2747E-06
  -9.118  0.4237E-05  0.3171E-06
  -9.108  0.4691E-05  0.3640E-06
  -9.098  0.5190E-05  0.4159E-06
  -9.088  0.5739E-05  0.4733E-06
  -9.078  0.6341E-05  0.5367E-06
  -9.068  0.7002E-05  0.6067E-06
  -9.058  0.7726E-05  0.6840E-06
  -9.048  0.8520E-05  0.7692E-06
  -9.038  0.9388E-05  0.8630E-06
  -9.028  0.1034E-04  0.9664E-06
  -9.018  0.1138E-04  0.1080E-05
  -9.008  0.1251E-04  0.1205E-05
  -8.998  0.1375E-04  0.1343E-05
  -8.988  0.1510E-04  0.1494E-05
  -8.978  0.1657E-04  0.1660E-05
  -8.968  0.1818E-04  0.1841E-05
  -8.958  0.1992E-04  0.2041E-05
  -8.948  0.2182E-04  0.2259E-05
  -8.938  0.2389E-04  0.2498E-05
  -8.928  0.2613E-04  0.2759E-05
  -8.918  0.2856E-04  0.3045E-05
  -8.908  0.3120E-04  0.3357E-05
  -8.898  0.3405E-04  0.3697E-05
  -8.888  0.3715E-04  0.4069E-05
  -8.878  0.4050E-04  0.4473E-05
  -8.868  0.4412E-04  0.4915E-05
  -8.858  0.4803E-04  0.5395E-05
  -8.848  0.5225E-04  0.5917E-05
  -8.838  0.5681E-04  0.6486E-05
  -8.828  0.6172E-04  0.7103E-05
  -8.818  0.6701E-04  0.7773E-05
  -8.808  0.7271E-04  0.8500E-05
  -8.798  0.7884E-04  0.9288E-05
  -8.788  0.8542E-04  0.1014E-04
  -8.778  0.9250E-04  0.1107E-04
  -8.768  0.1001E-03  0.1207E-04
  -8.758  0.1082E-03  0.1315E-04
  -8.748  0.1170E-03  0.1432E-04
  -8.738  0.1263E-03  0.1558E-04
  -8.728  0.1363E-03  0.1695E-04
  -8.718  0.1470E-03  0.1842E-04
  -8.708  0.1584E-03  0.2000E-04
  -8.698  0.1706E-03  0.2171E-04
  -8.688  0.1837E-03  0.2354E-04
  -8.678  0.1975E-03  0.2552E-04
  -8.668  0.2123E-03  0.2764E-04
  -8.658  0.2281E-03  0.2992E-04
  -8.648  0.2448E-03  0.3237E-04
  -8.638  0.2626E-03  0.3500E-04
  -8.628  0.2815E-03  0.3781E-04
  -8.618  0.3016E-03  0.4083E-04
  -8.608  0.3229E-03  0.4406E-04
  -8.598  0.3454E-03  0.4751E-04
  -8.588  0.3693E-03  0.5120E-04
  -8.578  0.3945E-03  0.5515E-04
  -8.568  0.4212E-03  0.5936E-04
  -8.558  0.4495E-03  0.6386E-04
  -8.548  0.4793E-03  0.6865E-04
  -8.538  0.5107E-03  0.7376E-04
  -8.528  0.5438E-03  0.7919E-04
  -8.518  0.5787E-03  0.8498E-04
  -8.508  0.6154E-03  0.9114E-04
  -8.498  0.6540E-03  0.9768E-04
  -8.488  0.6946E-03  0.1046E-03
  -8.478  0.7372E-03  0.1120E-03
  -8.468  0.7820E-03  0.1198E-03
  -8.458  0.8288E-03  0.1281E-03
  -8.448  0.8780E-03  0.1369E-03
  -8.438  0.9294E-03  0.1462E-03
  -8.428  0.9832E-03  0.1560E-03
  -8.418  0.1039E-02  0.1664E-03
  -8.408  0.1098E-02  0.1774E-03
  -8.398  0.1159E-02  0.1890E-03
  -8.388  0.1223E-02  0.2012E-03
  -8.378  0.1290E-02  0.2141E-03
  -8.368  0.1359E-02  0.2277E-03
  -8.358  0.1431E-02  0.2420E-03
  -8.348  0.1506E-02  0.2571E-03
  -8.338  0.1584E-02  0.2729E-03
  -8.328  0.1665E-02  0.2896E-03
  -8.318  0.1749E-02  0.3071E-03
  -8.308  0.1836E-02  0.3254E-03
  -8.298  0.1926E-02  0.3447E-03
  -8.288  0.2020E-02  0.3649E-03
  -8.278  0.2116E-02  0.3861E-03
  -8.268  0.2216E-02  0.4082E-03
  -8.258  0.2319E-02  0.4314E-03
  -8.248  0.2425E-02  0.4557E-03
  -8.238  0.2535E-02  0.4810E-03
  -8.228  0.2648E-02  0.5075E-03
  -8.218  0.2764E-02  0.5351E-03
  -8.208  0.2884E-02  0.5640E-03
  -8.198  0.3007E-02  0.5940E-03
  -8.188  0.3133E-02  0.6254E-03
  -8.178  0.3263E-02  0.6580E-03
  -8.168  0.3397E-02  0.6920E-03
  -8.158  0.3533E-02  0.7273E-03
  -8.148  0.3674E-02  0.7640E-03
  -8.138  0.3817E-02  0.8022E-03
  -8.128  0.3964E-02  0.8418E-03
  -8.118  0.4115E-02  0.8830E-03
  -8.108  0.4268E-02  0.9257E-03
  -8.098  0.4426E-02  0.9699E-03
  -8.088  0.4586E-02  0.1016E-02
  -8.078  0.4750E-02  0.1063E-02
  -8.068  0.4918E-02  0.1112E-02
  -8.058  0.5088E-02  0.1163E-02
  -8.048  0.5262E-02  0.1216E-02
  -8.038  0.5440E-02  0.1270E-02
  -8.028  0.5620E-02  0.1327E-02
  -8.018  0.5804E-02  0.1385E-02
  -8.008  0.5992E-02  0.1445E-02
  -7.998  0.6183E-02  0.1506E-02
  -7.988  0.6377E-02  0.1570E-02
  -7.978  0.6574E-02  0.1636E-02
  -7.968  0.6775E-02  0.1704E-02
  -7.958  0.6980E-02  0.1773E-02
  -7.948  0.7188E-02  0.1845E-02
  -7.938  0.7400E-02  0.1919E-02
  -7.928  0.7615E-02  0.1995E-02
  -7.918  0.7834E-02  0.2074E-02
  -7.908  0.8057E-02  0.2154E-02
  -7.898  0.8284E-02  0.2237E-02
  -7.888  0.8515E-02  0.2322E-02
  -7.878  0.8750E-02  0.2410E-02
  -7.868  0.8990E-02  0.2500E-02
  -7.858  0.9234E-02  0.2592E-02
  -7.848  0.9483E-02  0.2687E-02
  -7.838  0.9737E-02  0.2784E-02
  -7.828  0.9997E-02  0.2884E-02
  -7.818  0.1026E-01  0.2987E-02
  -7.808  0.1053E-01  0.3092E-02
  -7.798  0.1081E-01  0.3200E-02
  -7.788  0.1109E-01  0.3311E-02
  -7.778  0.1138E-01  0.3425E-02
  -7.768  0.1168E-01  0.3542E-02
  -7.758  0.1198E-01  0.3662E-02
  -7.748  0.1230E-01  0.3785E-02
  -7.738  0.1262E-01  0.3911E-02
  -7.728  0.1295E-01  0.4040E-02
  -7.718  0.1329E-01  0.4173E-02
  -7.708  0.1364E-01  0.4310E-02
  -7.698  0.1400E-01  0.4450E-02
  -7.688  0.1437E-01  0.4593E-02
  -7.678  0.1475E-01  0.4741E-02
  -7.668  0.1515E-01  0.4892E-02
  -7.658  0.1556E-01  0.5048E-02
  -7.648  0.1598E-01  0.5208E-02
  -7.638  0.1642E-01  0.5372E-02
  -7.628  0.1687E-01  0.5541E-02
  -7.618  0.1734E-01  0.5714E-02
  -7.608  0.1782E-01  0.5892E-02
  -7.598  0.1832E-01  0.6076E-02
  -7.588  0.1884E-01  0.6264E-02
  -7.578  0.1938E-01  0.6458E-02
  -7.568  0.1994E-01  0.6657E-02
  -7.558  0.2052E-01  0.6862E-02
  -7.548  0.2112E-01  0.7074E-02
  -7.538  0.2174E-01  0.7291E-02
  -7.528  0.2238E-01  0.7515E-02
  -7.518  0.2305E-01  0.7745E-02
  -7.508  0.2374E-01  0.7983E-02
  -7.498  0.2446E-01  0.8227E-02
  -7.488  0.2520E-01  0.8480E-02
  -7.478  0.2597E-01  0.8739E-02
  -7.468  0.2677E-01  0.9007E-02
  -7.458  0.2759E-01  0.9283E-02
  -7.448  0.2844E-01  0.9567E-02
  -7.438  0.2932E-01  0.9861E-02
  -7.428  0.3023E-01  0.1016E-01
  -7.418  0.3117E-01  0.1047E-01
  -7.408  0.3214E-01  0.1080E-01
  -7.398  0.3314E-01  0.1113E-01
  -7.388  0.3418E-01  0.1147E-01
  -7.378  0.3524E-01  0.1182E-01
  -7.368  0.3633E-01  0.1218E-01
  -7.358  0.3746E-01  0.1256E-01
  -7.348  0.3861E-01  0.1295E-01
  -7.338  0.3980E-01  0.1334E-01
  -7.328  0.4102E-01  0.1375E-01
  -7.318  0.4227E-01  0.1418E-01
  -7.308  0.4355E-01  0.1461E-01
  -7.298  0.4486E-01  0.1506E-01
  -7.288  0.4621E-01  0.1552E-01
  -7.278  0.4758E-01  0.1600E-01
  -7.268  0.4898E-01  0.1649E-01
  -7.258  0.5041E-01  0.1699E-01
  -7.248  0.5186E-01  0.1751E-01
  -7.238  0.5334E-01  0.1804E-01
  -7.228  0.5485E-01  0.1859E-01
  -7.218  0.5638E-01  0.1916E-01
  -7.208  0.5794E-01  0.1974E-01
  -7.198  0.5951E-01  0.2033E-01
  -7.188  0.6111E-01  0.2094E-01
  -7.178  0.6272E-01  0.2157E-01
  -7.168  0.6436E-01  0.2221E-01
  -7.158  0.6600E-01  0.2287E-01
  -7.148  0.6766E-01  0.2355E-01
  -7.138  0.6934E-01  0.2424E-01
  -7.128  0.7102E-01  0.2495E-01
  -7.118  0.7271E-01  0.2568E-01
  -7.108  0.7441E-01  0.2642E-01
  -7.098  0.7611E-01  0.2719E-01
  -7.088  0.7781E-01  0.2796E-01
  -7.078  0.7951E-01  0.2876E-01
  -7.068  0.8120E-01  0.2957E-01
  -7.058  0.8289E-01  0.3040E-01
  -7.048  0.8458E-01  0.3125E-01
  -7.038  0.8625E-01  0.3211E-01
  -7.028  0.8791E-01  0.3299E-01
  -7.018  0.8955E-01  0.3388E-01
  -7.008  0.9117E-01  0.3479E-01
  -6.998  0.9278E-01  0.3572E-01
  -6.988  0.9436E-01  0.3667E-01
  -6.978  0.9591E-01  0.3762E-01
  -6.968  0.9744E-01  0.3860E-01
  -6.958  0.9893E-01  0.3959E-01
  -6.948  0.1004E+00  0.4059E-01
  -6.938  0.1018E+00  0.4161E-01
  -6.928  0.1032E+00  0.4264E-01
  -6.918  0.1046E+00  0.4369E-01
  -6.908  0.1059E+00  0.4475E-01
  -6.898  0.1071E+00  0.4582E-01
  -6.888  0.1083E+00  0.4690E-01
  -6.878  0.1095E+00  0.4800E-01
  -6.868  0.1106E+00  0.4910E-01
  -6.858  0.1117E+00  0.5022E-01
  -6.848  0.1127E+00  0.5134E-01
  -6.838  0.1136E+00  0.5248E-01
  -6.828  0.1145E+00  0.5363E-01
  -6.818  0.1153E+00  0.5478E-01
  -6.808  0.1161E+00  0.5594E-01
  -6.798  0.1168E+00  0.5711E-01
  -6.788  0.1175E+00  0.5828E-01
  -6.778  0.1181E+00  0.5946E-01
  -6.768  0.1186E+00  0.6065E-01
  -6.758  0.1191E+00  0.6184E-01
  -6.748  0.1195E+00  0.6304E-01
  -6.738  0.1198E+00  0.6423E-01
  -6.728  0.1201E+00  0.6543E-01
  -6.718  0.1203E+00  0.6664E-01
  -6.708  0.1204E+00  0.6784E-01
  -6.698  0.1205E+00  0.6905E-01
  -6.688  0.1205E+00  0.7025E-01
  -6.678  0.1205E+00  0.7146E-01
  -6.668  0.1204E+00  0.7266E-01
  -6.658  0.1202E+00  0.7386E-01
  -6.648  0.1200E+00  0.7506E-01
  -6.638  0.1197E+00  0.7626E-01
  -6.628  0.1194E+00  0.7745E-01
  -6.618  0.1190E+00  0.7864E-01
  -6.608  0.1186E+00  0.7983E-01
  -6.598  0.1181E+00  0.8101E-01
  -6.588  0.1175E+00  0.8218E-01
  -6.578  0.1169E+00  0.8335E-01
  -6.568  0.1163E+00  0.8452E-01
  -6.558  0.1157E+00  0.8567E-01
  -6.548  0.1149E+00  0.8682E-01
  -6.538  0.1142E+00  0.8796E-01
  -6.528  0.1134E+00  0.8910E-01
  -6.518  0.1126E+00  0.9022E-01
  -6.508  0.1118E+00  0.9134E-01
  -6.498  0.1109E+00  0.9245E-01
  -6.488  0.1100E+00  0.9355E-01
  -6.478  0.1091E+00  0.9464E-01
  -6.468  0.1082E+00  0.9572E-01
  -6.458  0.1072E+00  0.9680E-01
  -6.448  0.1063E+00  0.9786E-01
  -6.438  0.1053E+00  0.9891E-01
  -6.428  0.1043E+00  0.9996E-01
  -6.418  0.1033E+00  0.1010E+00
  -6.408  0.1024E+00  0.1020E+00
  -6.398  0.1014E+00  0.1030E+00
  -6.388  0.1004E+00  0.1040E+00
  -6.378  0.9941E-01  0.1050E+00
  -6.368  0.9843E-01  0.1060E+00
  -6.358  0.9747E-01  0.1070E+00
  -6.348  0.9651E-01  0.1079E+00
  -6.338  0.9557E-01  0.1089E+00
  -6.328  0.9464E-01  0.1099E+00
  -6.318  0.9373E-01  0.1108E+00
  -6.308  0.9283E-01  0.1117E+00
  -6.298  0.9196E-01  0.1126E+00
  -6.288  0.9111E-01  0.1135E+00
  -6.278  0.9028E-01  0.1145E+00
  -6.268  0.8948E-01  0.1153E+00
  -6.258  0.8870E-01  0.1162E+00
  -6.248  0.8794E-01  0.1171E+00
  -6.238  0.8722E-01  0.1180E+00
  -6.228  0.8652E-01  0.1188E+00
  -6.218  0.8585E-01  0.1197E+00
  -6.208  0.8522E-01  0.1206E+00
  -6.198  0.8461E-01  0.1214E+00
  -6.188  0.8403E-01  0.1222E+00
  -6.178  0.8349E-01  0.1231E+00
  -6.168  0.8298E-01  0.1239E+00
  -6.158  0.8250E-01  0.1247E+00
  -6.148  0.8205E-01  0.1256E+00
  -6.138  0.8164E-01  0.1264E+00
  -6.128  0.8126E-01  0.1272E+00
  -6.118  0.8091E-01  0.1280E+00
  -6.108  0.8059E-01  0.1288E+00
  -6.098  0.8031E-01  0.1296E+00
  -6.088  0.8006E-01  0.1304E+00
  -6.078  0.7984E-01  0.1312E+00
  -6.068  0.7965E-01  0.1320E+00
  -6.058  0.7949E-01  0.1328E+00
  -6.048  0.7937E-01  0.1336E+00
  -6.038  0.7927E-01  0.1344E+00
  -6.028  0.7921E-01  0.1352E+00
  -6.018  0.7918E-01  0.1360E+00
  -6.008  0.7918E-01  0.1368E+00
  -5.998  0.7921E-01  0.1375E+00
  -5.988  0.7927E-01  0.1383E+00
  -5.978  0.7936E-01  0.1391E+00
  -5.968  0.7947E-01  0.1399E+00
  -5.958  0.7962E-01  0.1407E+00
  -5.948  0.7980E-01  0.1415E+00
  -5.938  0.8001E-01  0.1423E+00
  -5.928  0.8025E-01  0.1431E+00
  -5.918  0.8052E-01  0.1439E+00
  -5.908  0.8082E-01  0.1447E+00
  -5.898  0.8115E-01  0.1456E+00
  -5.888  0.8151E-01  0.1464E+00
  -5.878  0.8190E-01  0.1472E+00
  -5.868  0.8233E-01  0.1480E+00
  -5.858  0.8279E-01  0.1488E+00
  -5.848  0.8328E-01  0.1497E+00
  -5.838  0.8380E-01  0.1505E+00
  -5.828  0.8436E-01  0.1514E+00
  -5.818  0.8496E-01  0.1522E+00
  -5.808  0.8559E-01  0.1531E+00
  -5.798  0.8626E-01  0.1539E+00
  -5.788  0.8697E-01  0.1548E+00
  -5.778  0.8772E-01  0.1557E+00
  -5.768  0.8850E-01  0.1566E+00
  -5.758  0.8933E-01  0.1574E+00
  -5.748  0.9021E-01  0.1583E+00
  -5.738  0.9112E-01  0.1593E+00
  -5.728  0.9209E-01  0.1602E+00
  -5.718  0.9309E-01  0.1611E+00
  -5.708  0.9415E-01  0.1621E+00
  -5.698  0.9526E-01  0.1630E+00
  -5.688  0.9641E-01  0.1640E+00
  -5.678  0.9762E-01  0.1649E+00
  -5.668  0.9887E-01  0.1659E+00
  -5.658  0.1002E+00  0.1669E+00
  -5.648  0.1016E+00  0.1679E+00
  -5.638  0.1030E+00  0.1690E+00
  -5.628  0.1045E+00  0.1700E+00
  -5.618  0.1060E+00  0.1711E+00
  -5.608  0.1076E+00  0.1722E+00
  -5.598  0.1092E+00  0.1733E+00
  -5.588  0.1109E+00  0.1744E+00
  -5.578  0.1127E+00  0.1755E+00
  -5.568  0.1145E+00  0.1766E+00
  -5.558  0.1164E+00  0.1778E+00
  -5.548  0.1184E+00  0.1790E+00
  -5.538  0.1204E+00  0.1802E+00
  -5.528  0.1224E+00  0.1814E+00
  -5.518  0.1245E+00  0.1827E+00
  -5.508  0.1267E+00  0.1839E+00
  -5.498  0.1289E+00  0.1852E+00
  -5.488  0.1312E+00  0.1865E+00
  -5.478  0.1336E+00  0.1879E+00
  -5.468  0.1360E+00  0.1892E+00
  -5.458  0.1384E+00  0.1906E+00
  -5.448  0.1409E+00  0.1920E+00
  -5.438  0.1434E+00  0.1934E+00
  -5.428  0.1460E+00  0.1949E+00
  -5.418  0.1486E+00  0.1964E+00
  -5.408  0.1513E+00  0.1979E+00
  -5.398  0.1540E+00  0.1994E+00
  -5.388  0.1567E+00  0.2010E+00
  -5.378  0.1595E+00  0.2026E+00
  -5.368  0.1622E+00  0.2042E+00
  -5.358  0.1650E+00  0.2059E+00
  -5.348  0.1678E+00  0.2076E+00
  -5.338  0.1707E+00  0.2093E+00
  -5.328  0.1735E+00  0.2110E+00
  -5.318  0.1764E+00  0.2128E+00
  -5.308  0.1792E+00  0.2146E+00
  -5.298  0.1820E+00  0.2164E+00
  -5.288  0.1849E+00  0.2182E+00
  -5.278  0.1877E+00  0.2201E+00
  -5.268  0.1905E+00  0.2220E+00
  -5.258  0.1933E+00  0.2239E+00
  -5.248  0.1960E+00  0.2259E+00
  -5.238  0.1987E+00  0.2279E+00
  -5.228  0.2014E+00  0.2299E+00
  -5.218  0.2040E+00  0.2319E+00
  -5.208  0.2066E+00  0.2340E+00
  -5.198  0.2092E+00  0.2361E+00
  -5.188  0.2116E+00  0.2382E+00
  -5.178  0.2141E+00  0.2404E+00
  -5.168  0.2164E+00  0.2425E+00
  -5.158  0.2187E+00  0.2447E+00
  -5.148  0.2209E+00  0.2469E+00
  -5.138  0.2230E+00  0.2491E+00
  -5.128  0.2250E+00  0.2514E+00
  -5.118  0.2270E+00  0.2537E+00
  -5.108  0.2288E+00  0.2560E+00
  -5.098  0.2306E+00  0.2583E+00
  -5.088  0.2323E+00  0.2606E+00
  -5.078  0.2338E+00  0.2629E+00
  -5.068  0.2353E+00  0.2653E+00
  -5.058  0.2366E+00  0.2676E+00
  -5.048  0.2379E+00  0.2700E+00
  -5.038  0.2390E+00  0.2724E+00
  -5.028  0.2400E+00  0.2748E+00
  -5.018  0.2409E+00  0.2772E+00
  -5.008  0.2417E+00  0.2796E+00
  -4.998  0.2423E+00  0.2821E+00
  -4.988  0.2429E+00  0.2845E+00
  -4.978  0.2433E+00  0.2869E+00
  -4.968  0.2436E+00  0.2894E+00
  -4.958  0.2438E+00  0.2918E+00
  -4.948  0.2439E+00  0.2942E+00
  -4.938  0.2438E+00  0.2967E+00
  -4.928  0.2437E+00  0.2991E+00
  -4.918  0.2434E+00  0.3015E+00
  -4.908  0.2430E+00  0.3040E+00
  -4.898  0.2425E+00  0.3064E+00
  -4.888  0.2419E+00  0.3088E+00
  -4.878  0.2412E+00  0.3112E+00
  -4.868  0.2404E+00  0.3136E+00
  -4.858  0.2395E+00  0.3160E+00
  -4.848  0.2384E+00  0.3184E+00
  -4.838  0.2373E+00  0.3208E+00
  -4.828  0.2361E+00  0.3231E+00
  -4.818  0.2349E+00  0.3255E+00
  -4.808  0.2335E+00  0.3278E+00
  -4.798  0.2321E+00  0.3302E+00
  -4.788  0.2306E+00  0.3325E+00
  -4.778  0.2290E+00  0.3347E+00
  -4.768  0.2274E+00  0.3370E+00
  -4.758  0.2257E+00  0.3393E+00
  -4.748  0.2239E+00  0.3415E+00
  -4.738  0.2221E+00  0.3437E+00
  -4.728  0.2203E+00  0.3459E+00
  -4.718  0.2184E+00  0.3481E+00
  -4.708  0.2165E+00  0.3503E+00
  -4.698  0.2146E+00  0.3524E+00
  -4.688  0.2126E+00  0.3546E+00
  -4.678  0.2107E+00  0.3567E+00
  -4.668  0.2087E+00  0.3588E+00
  -4.658  0.2067E+00  0.3608E+00
  -4.648  0.2047E+00  0.3629E+00
  -4.638  0.2027E+00  0.3649E+00
  -4.628  0.2007E+00  0.3669E+00
  -4.618  0.1987E+00  0.3689E+00
  -4.608  0.1968E+00  0.3709E+00
  -4.598  0.1948E+00  0.3728E+00
  -4.588  0.1929E+00  0.3747E+00
  -4.578  0.1910E+00  0.3766E+00
  -4.568  0.1891E+00  0.3785E+00
  -4.558  0.1873E+00  0.3804E+00
  -4.548  0.1855E+00  0.3823E+00
  -4.538  0.1837E+00  0.3841E+00
  -4.528  0.1820E+00  0.3859E+00
  -4.518  0.1803E+00  0.3877E+00
  -4.508  0.1786E+00  0.3895E+00
  -4.498  0.1770E+00  0.3913E+00
  -4.488  0.1755E+00  0.3930E+00
  -4.478  0.1740E+00  0.3948E+00
  -4.468  0.1725E+00  0.3965E+00
  -4.458  0.1711E+00  0.3982E+00
  -4.448  0.1698E+00  0.3999E+00
  -4.438  0.1685E+00  0.4016E+00
  -4.428  0.1673E+00  0.4033E+00
  -4.418  0.1661E+00  0.4049E+00
  -4.408  0.1650E+00  0.4066E+00
  -4.398  0.1639E+00  0.4082E+00
  -4.388  0.1629E+00  0.4098E+00
  -4.378  0.1619E+00  0.4115E+00
  -4.368  0.1610E+00  0.4131E+00
  -4.358  0.1601E+00  0.4147E+00
  -4.348  0.1593E+00  0.4163E+00
  -4.338  0.1585E+00  0.4179E+00
  -4.328  0.1578E+00  0.4194E+00
  -4.318  0.1572E+00  0.4210E+00
  -4.308  0.1565E+00  0.4226E+00
  -4.298  0.1559E+00  0.4241E+00
  -4.288  0.1554E+00  0.4257E+00
  -4.278  0.1549E+00  0.4272E+00
  -4.268  0.1544E+00  0.4288E+00
  -4.258  0.1540E+00  0.4303E+00
  -4.248  0.1536E+00  0.4319E+00
  -4.238  0.1533E+00  0.4334E+00
  -4.228  0.1530E+00  0.4349E+00
  -4.218  0.1527E+00  0.4364E+00
  -4.208  0.1524E+00  0.4380E+00
  -4.198  0.1522E+00  0.4395E+00
  -4.188  0.1520E+00  0.4410E+00
  -4.178  0.1518E+00  0.4425E+00
  -4.168  0.1517E+00  0.4440E+00
  -4.158  0.1516E+00  0.4456E+00
  -4.148  0.1515E+00  0.4471E+00
  -4.138  0.1514E+00  0.4486E+00
  -4.128  0.1514E+00  0.4501E+00
  -4.118  0.1513E+00  0.4516E+00
  -4.108  0.1513E+00  0.4531E+00
  -4.098  0.1514E+00  0.4546E+00
  -4.088  0.1514E+00  0.4562E+00
  -4.078  0.1515E+00  0.4577E+00
  -4.068  0.1516E+00  0.4592E+00
  -4.058  0.1517E+00  0.4607E+00
  -4.048  0.1518E+00  0.4622E+00
  -4.038  0.1520E+00  0.4637E+00
  -4.028  0.1521E+00  0.4653E+00
  -4.018  0.1523E+00  0.4668E+00
  -4.008  0.1526E+00  0.4683E+00
  -3.998  0.1528E+00  0.4698E+00
  -3.988  0.1531E+00  0.4714E+00
  -3.978  0.1535E+00  0.4729E+00
  -3.968  0.1538E+00  0.4744E+00
  -3.958  0.1542E+00  0.4760E+00
  -3.948  0.1546E+00  0.4775E+00
  -3.938  0.1550E+00  0.4791E+00
  -3.928  0.1555E+00  0.4806E+00
  -3.918  0.1561E+00  0.4822E+00
  -3.908  0.1566E+00  0.4838E+00
  -3.898  0.1572E+00  0.4853E+00
  -3.888  0.1579E+00  0.4869E+00
  -3.878  0.1585E+00  0.4885E+00
  -3.868  0.1593E+00  0.4901E+00
  -3.858  0.1601E+00  0.4917E+00
  -3.848  0.1609E+00  0.4933E+00
  -3.838  0.1618E+00  0.4949E+00
  -3.828  0.1627E+00  0.4965E+00
  -3.818  0.1637E+00  0.4982E+00
  -3.808  0.1647E+00  0.4998E+00
  -3.798  0.1658E+00  0.5015E+00
  -3.788  0.1669E+00  0.5032E+00
  -3.778  0.1681E+00  0.5048E+00
  -3.768  0.1693E+00  0.5065E+00
  -3.758  0.1706E+00  0.5082E+00
  -3.748  0.1719E+00  0.5100E+00
  -3.738  0.1733E+00  0.5117E+00
  -3.728  0.1747E+00  0.5134E+00
  -3.718  0.1762E+00  0.5152E+00
  -3.708  0.1778E+00  0.5170E+00
  -3.698  0.1793E+00  0.5188E+00
  -3.688  0.1810E+00  0.5206E+00
  -3.678  0.1827E+00  0.5224E+00
  -3.668  0.1844E+00  0.5243E+00
  -3.658  0.1861E+00  0.5261E+00
  -3.648  0.1879E+00  0.5280E+00
  -3.638  0.1897E+00  0.5299E+00
  -3.628  0.1916E+00  0.5318E+00
  -3.618  0.1935E+00  0.5337E+00
  -3.608  0.1954E+00  0.5357E+00
  -3.598  0.1974E+00  0.5377E+00
  -3.588  0.1993E+00  0.5397E+00
  -3.578  0.2013E+00  0.5417E+00
  -3.568  0.2033E+00  0.5437E+00
  -3.558  0.2053E+00  0.5458E+00
  -3.548  0.2073E+00  0.5478E+00
  -3.538  0.2093E+00  0.5499E+00
  -3.528  0.2112E+00  0.5520E+00
  -3.518  0.2132E+00  0.5542E+00
  -3.508  0.2152E+00  0.5563E+00
  -3.498  0.2171E+00  0.5585E+00
  -3.488  0.2190E+00  0.5607E+00
  -3.478  0.2209E+00  0.5629E+00
  -3.468  0.2228E+00  0.5651E+00
  -3.458  0.2246E+00  0.5674E+00
  -3.448  0.2263E+00  0.5696E+00
  -3.438  0.2281E+00  0.5719E+00
  -3.428  0.2297E+00  0.5742E+00
  -3.418  0.2313E+00  0.5765E+00
  -3.408  0.2329E+00  0.5788E+00
  -3.398  0.2343E+00  0.5812E+00
  -3.388  0.2357E+00  0.5835E+00
  -3.378  0.2371E+00  0.5859E+00
  -3.368  0.2383E+00  0.5883E+00
  -3.358  0.2395E+00  0.5907E+00
  -3.348  0.2405E+00  0.5931E+00
  -3.338  0.2415E+00  0.5955E+00
  -3.328  0.2424E+00  0.5979E+00
  -3.318  0.2432E+00  0.6004E+00
  -3.308  0.2439E+00  0.6028E+00
  -3.298  0.2444E+00  0.6053E+00
  -3.288  0.2449E+00  0.6077E+00
  -3.278  0.2453E+00  0.6102E+00
  -3.268  0.2455E+00  0.6126E+00
  -3.258  0.2457E+00  0.6151E+00
  -3.248  0.2457E+00  0.6175E+00
  -3.238  0.2457E+00  0.6200E+00
  -3.228  0.2455E+00  0.6224E+00
  -3.218  0.2452E+00  0.6249E+00
  -3.208  0.2447E+00  0.6273E+00
  -3.198  0.2442E+00  0.6298E+00
  -3.188  0.2436E+00  0.6322E+00
  -3.178  0.2428E+00  0.6346E+00
  -3.168  0.2419E+00  0.6371E+00
  -3.158  0.2410E+00  0.6395E+00
  -3.148  0.2399E+00  0.6419E+00
  -3.138  0.2387E+00  0.6443E+00
  -3.128  0.2374E+00  0.6466E+00
  -3.118  0.2360E+00  0.6490E+00
  -3.108  0.2346E+00  0.6513E+00
  -3.098  0.2330E+00  0.6537E+00
  -3.088  0.2313E+00  0.6560E+00
  -3.078  0.2296E+00  0.6583E+00
  -3.068  0.2278E+00  0.6606E+00
  -3.058  0.2258E+00  0.6628E+00
  -3.048  0.2239E+00  0.6651E+00
  -3.038  0.2218E+00  0.6673E+00
  -3.028  0.2197E+00  0.6695E+00
  -3.018  0.2175E+00  0.6716E+00
  -3.008  0.2153E+00  0.6738E+00
  -2.998  0.2130E+00  0.6759E+00
  -2.988  0.2107E+00  0.6780E+00
  -2.978  0.2083E+00  0.6801E+00
  -2.968  0.2059E+00  0.6822E+00
  -2.958  0.2035E+00  0.6842E+00
  -2.948  0.2010E+00  0.6862E+00
  -2.938  0.1985E+00  0.6882E+00
  -2.928  0.1960E+00  0.6902E+00
  -2.918  0.1935E+00  0.6921E+00
  -2.908  0.1910E+00  0.6940E+00
  -2.898  0.1885E+00  0.6959E+00
  -2.888  0.1859E+00  0.6978E+00
  -2.878  0.1834E+00  0.6996E+00
  -2.868  0.1809E+00  0.7014E+00
  -2.858  0.1785E+00  0.7032E+00
  -2.848  0.1760E+00  0.7049E+00
  -2.838  0.1736E+00  0.7067E+00
  -2.828  0.1712E+00  0.7084E+00
  -2.818  0.1688E+00  0.7101E+00
  -2.808  0.1665E+00  0.7117E+00
  -2.798  0.1642E+00  0.7134E+00
  -2.788  0.1620E+00  0.7150E+00
  -2.778  0.1598E+00  0.7166E+00
  -2.768  0.1577E+00  0.7182E+00
  -2.758  0.1556E+00  0.7197E+00
  -2.748  0.1536E+00  0.7213E+00
  -2.738  0.1516E+00  0.7228E+00
  -2.728  0.1497E+00  0.7243E+00
  -2.718  0.1479E+00  0.7258E+00
  -2.708  0.1461E+00  0.7272E+00
  -2.698  0.1444E+00  0.7287E+00
  -2.688  0.1428E+00  0.7301E+00
  -2.678  0.1412E+00  0.7315E+00
  -2.668  0.1397E+00  0.7329E+00
  -2.658  0.1383E+00  0.7343E+00
  -2.648  0.1370E+00  0.7357E+00
  -2.638  0.1357E+00  0.7370E+00
  -2.628  0.1346E+00  0.7384E+00
  -2.618  0.1335E+00  0.7397E+00
  -2.608  0.1325E+00  0.7410E+00
  -2.598  0.1316E+00  0.7423E+00
  -2.588  0.1307E+00  0.7436E+00
  -2.578  0.1300E+00  0.7449E+00
  -2.568  0.1293E+00  0.7462E+00
  -2.558  0.1287E+00  0.7475E+00
  -2.548  0.1282E+00  0.7488E+00
  -2.538  0.1278E+00  0.7501E+00
  -2.528  0.1274E+00  0.7514E+00
  -2.518  0.1272E+00  0.7526E+00
  -2.508  0.1270E+00  0.7539E+00
  -2.498  0.1270E+00  0.7552E+00
  -2.488  0.1270E+00  0.7564E+00
  -2.478  0.1271E+00  0.7577E+00
  -2.468  0.1273E+00  0.7590E+00
  -2.458  0.1276E+00  0.7603E+00
  -2.448  0.1280E+00  0.7615E+00
  -2.438  0.1285E+00  0.7628E+00
  -2.428  0.1291E+00  0.7641E+00
  -2.418  0.1298E+00  0.7654E+00
  -2.408  0.1305E+00  0.7667E+00
  -2.398  0.1314E+00  0.7680E+00
  -2.388  0.1324E+00  0.7694E+00
  -2.378  0.1334E+00  0.7707E+00
  -2.368  0.1346E+00  0.7720E+00
  -2.358  0.1359E+00  0.7734E+00
  -2.348  0.1373E+00  0.7748E+00
  -2.338  0.1388E+00  0.7762E+00
  -2.328  0.1403E+00  0.7776E+00
  -2.318  0.1420E+00  0.7790E+00
  -2.308  0.1439E+00  0.7804E+00
  -2.298  0.1458E+00  0.7819E+00
  -2.288  0.1478E+00  0.7834E+00
  -2.278  0.1500E+00  0.7849E+00
  -2.268  0.1522E+00  0.7864E+00
  -2.258  0.1546E+00  0.7879E+00
  -2.248  0.1571E+00  0.7895E+00
  -2.238  0.1597E+00  0.7911E+00
  -2.228  0.1625E+00  0.7927E+00
  -2.218  0.1654E+00  0.7944E+00
  -2.208  0.1684E+00  0.7961E+00
  -2.198  0.1715E+00  0.7978E+00
  -2.188  0.1747E+00  0.7995E+00
  -2.178  0.1781E+00  0.8013E+00
  -2.168  0.1816E+00  0.8031E+00
  -2.158  0.1852E+00  0.8050E+00
  -2.148  0.1890E+00  0.8069E+00
  -2.138  0.1929E+00  0.8088E+00
  -2.128  0.1969E+00  0.8108E+00
  -2.118  0.2010E+00  0.8128E+00
  -2.108  0.2053E+00  0.8148E+00
  -2.098  0.2097E+00  0.8169E+00
  -2.088  0.2142E+00  0.8191E+00
  -2.078  0.2188E+00  0.8212E+00
  -2.068  0.2235E+00  0.8235E+00
  -2.058  0.2284E+00  0.8258E+00
  -2.048  0.2334E+00  0.8281E+00
  -2.038  0.2385E+00  0.8305E+00
  -2.028  0.2437E+00  0.8329E+00
  -2.018  0.2490E+00  0.8354E+00
  -2.008  0.2544E+00  0.8379E+00
  -1.998  0.2598E+00  0.8405E+00
  -1.988  0.2654E+00  0.8432E+00
  -1.978  0.2711E+00  0.8459E+00
  -1.968  0.2768E+00  0.8487E+00
  -1.958  0.2826E+00  0.8515E+00
  -1.948  0.2885E+00  0.8544E+00
  -1.938  0.2944E+00  0.8573E+00
  -1.928  0.3004E+00  0.8603E+00
  -1.918  0.3064E+00  0.8634E+00
  -1.908  0.3124E+00  0.8665E+00
  -1.898  0.3185E+00  0.8697E+00
  -1.888  0.3246E+00  0.8730E+00
  -1.878  0.3307E+00  0.8763E+00
  -1.868  0.3368E+00  0.8796E+00
  -1.858  0.3428E+00  0.8831E+00
  -1.848  0.3489E+00  0.8865E+00
  -1.838  0.3549E+00  0.8901E+00
  -1.828  0.3609E+00  0.8937E+00
  -1.818  0.3669E+00  0.8974E+00
  -1.808  0.3727E+00  0.9011E+00
  -1.798  0.3785E+00  0.9049E+00
  -1.788  0.3843E+00  0.9087E+00
  -1.778  0.3899E+00  0.9126E+00
  -1.768  0.3954E+00  0.9166E+00
  -1.758  0.4008E+00  0.9206E+00
  -1.748  0.4061E+00  0.9247E+00
  -1.738  0.4113E+00  0.9288E+00
  -1.728  0.4163E+00  0.9329E+00
  -1.718  0.4211E+00  0.9371E+00
  -1.708  0.4258E+00  0.9414E+00
  -1.698  0.4304E+00  0.9457E+00
  -1.688  0.4347E+00  0.9500E+00
  -1.678  0.4388E+00  0.9544E+00
  -1.668  0.4428E+00  0.9589E+00
  -1.658  0.4465E+00  0.9633E+00
  -1.648  0.4500E+00  0.9678E+00
  -1.638  0.4533E+00  0.9724E+00
  -1.628  0.4563E+00  0.9769E+00
  -1.618  0.4591E+00  0.9815E+00
  -1.608  0.4617E+00  0.9861E+00
  -1.598  0.4640E+00  0.9908E+00
  -1.588  0.4661E+00  0.9954E+00
  -1.578  0.4679E+00  0.1000E+01
  -1.568  0.4694E+00  0.1005E+01
  -1.558  0.4707E+00  0.1010E+01
  -1.548  0.4717E+00  0.1014E+01
  -1.538  0.4724E+00  0.1019E+01
  -1.528  0.4728E+00  0.1024E+01
  -1.518  0.4730E+00  0.1028E+01
  -1.508  0.4728E+00  0.1033E+01
  -1.498  0.4724E+00  0.1038E+01
  -1.488  0.4718E+00  0.1043E+01
  -1.478  0.4708E+00  0.1047E+01
  -1.468  0.4696E+00  0.1052E+01
  -1.458  0.4681E+00  0.1057E+01
  -1.448  0.4663E+00  0.1061E+01
  -1.438  0.4643E+00  0.1066E+01
  -1.428  0.4620E+00  0.1071E+01
  -1.418  0.4595E+00  0.1075E+01
  -1.408  0.4567E+00  0.1080E+01
  -1.398  0.4536E+00  0.1084E+01
  -1.388  0.4503E+00  0.1089E+01
  -1.378  0.4468E+00  0.1093E+01
  -1.368  0.4431E+00  0.1098E+01
  -1.358  0.4392E+00  0.1102E+01
  -1.348  0.4350E+00  0.1106E+01
  -1.338  0.4306E+00  0.1111E+01
  -1.328  0.4261E+00  0.1115E+01
  -1.318  0.4214E+00  0.1119E+01
  -1.308  0.4165E+00  0.1123E+01
  -1.298  0.4114E+00  0.1127E+01
  -1.288  0.4062E+00  0.1132E+01
  -1.278  0.4009E+00  0.1136E+01
  -1.268  0.3954E+00  0.1140E+01
  -1.258  0.3898E+00  0.1143E+01
  -1.248  0.3841E+00  0.1147E+01
  -1.238  0.3783E+00  0.1151E+01
  -1.228  0.3724E+00  0.1155E+01
  -1.218  0.3665E+00  0.1158E+01
  -1.208  0.3605E+00  0.1162E+01
  -1.198  0.3544E+00  0.1166E+01
  -1.188  0.3483E+00  0.1169E+01
  -1.178  0.3421E+00  0.1172E+01
  -1.168  0.3360E+00  0.1176E+01
  -1.158  0.3298E+00  0.1179E+01
  -1.148  0.3236E+00  0.1182E+01
  -1.138  0.3174E+00  0.1186E+01
  -1.128  0.3113E+00  0.1189E+01
  -1.118  0.3051E+00  0.1192E+01
  -1.108  0.2991E+00  0.1195E+01
  -1.098  0.2930E+00  0.1198E+01
  -1.088  0.2870E+00  0.1201E+01
  -1.078  0.2811E+00  0.1203E+01
  -1.068  0.2753E+00  0.1206E+01
  -1.058  0.2695E+00  0.1209E+01
  -1.048  0.2638E+00  0.1211E+01
  -1.038  0.2583E+00  0.1214E+01
  -1.028  0.2528E+00  0.1217E+01
  -1.018  0.2474E+00  0.1219E+01
  -1.008  0.2421E+00  0.1221E+01
  -0.998  0.2370E+00  0.1224E+01
  -0.988  0.2320E+00  0.1226E+01
  -0.978  0.2271E+00  0.1228E+01
  -0.968  0.2223E+00  0.1231E+01
  -0.958  0.2177E+00  0.1233E+01
  -0.948  0.2132E+00  0.1235E+01
  -0.938  0.2089E+00  0.1237E+01
  -0.928  0.2047E+00  0.1239E+01
  -0.918  0.2006E+00  0.1241E+01
  -0.908  0.1967E+00  0.1243E+01
  -0.898  0.1930E+00  0.1245E+01
  -0.888  0.1894E+00  0.1247E+01
  -0.878  0.1860E+00  0.1249E+01
  -0.868  0.1827E+00  0.1251E+01
  -0.858  0.1796E+00  0.1252E+01
  -0.848  0.1767E+00  0.1254E+01
  -0.838  0.1739E+00  0.1256E+01
  -0.828  0.1713E+00  0.1258E+01
  -0.818  0.1688E+00  0.1259E+01
  -0.808  0.1665E+00  0.1261E+01
  -0.798  0.1643E+00  0.1263E+01
  -0.788  0.1623E+00  0.1264E+01
  -0.778  0.1605E+00  0.1266E+01
  -0.768  0.1588E+00  0.1267E+01
  -0.758  0.1572E+00  0.1269E+01
  -0.748  0.1559E+00  0.1270E+01
  -0.738  0.1546E+00  0.1272E+01
  -0.728  0.1535E+00  0.1274E+01
  -0.718  0.1526E+00  0.1275E+01
  -0.708  0.1518E+00  0.1277E+01
  -0.698  0.1512E+00  0.1278E+01
  -0.688  0.1507E+00  0.1280E+01
  -0.678  0.1503E+00  0.1281E+01
  -0.668  0.1501E+00  0.1283E+01
  -0.658  0.1500E+00  0.1284E+01
  -0.648  0.1500E+00  0.1286E+01
  -0.638  0.1502E+00  0.1287E+01
  -0.628  0.1505E+00  0.1289E+01
  -0.618  0.1509E+00  0.1290E+01
  -0.608  0.1514E+00  0.1292E+01
  -0.598  0.1521E+00  0.1293E+01
  -0.588  0.1529E+00  0.1295E+01
  -0.578  0.1538E+00  0.1296E+01
  -0.568  0.1548E+00  0.1298E+01
  -0.558  0.1560E+00  0.1299E+01
  -0.548  0.1572E+00  0.1301E+01
  -0.538  0.1586E+00  0.1303E+01
  -0.528  0.1600E+00  0.1304E+01
  -0.518  0.1616E+00  0.1306E+01
  -0.508  0.1633E+00  0.1307E+01
  -0.498  0.1650E+00  0.1309E+01
  -0.488  0.1669E+00  0.1311E+01
  -0.478  0.1689E+00  0.1312E+01
  -0.468  0.1709E+00  0.1314E+01
  -0.458  0.1731E+00  0.1316E+01
  -0.448  0.1753E+00  0.1318E+01
  -0.438  0.1776E+00  0.1319E+01
  -0.428  0.1800E+00  0.1321E+01
  -0.418  0.1825E+00  0.1323E+01
  -0.408  0.1851E+00  0.1325E+01
  -0.398  0.1877E+00  0.1327E+01
  -0.388  0.1904E+00  0.1329E+01
  -0.378  0.1932E+00  0.1331E+01
  -0.368  0.1960E+00  0.1332E+01
  -0.358  0.1989E+00  0.1334E+01
  -0.348  0.2019E+00  0.1336E+01
  -0.338  0.2050E+00  0.1339E+01
  -0.328  0.2080E+00  0.1341E+01
  -0.318  0.2112E+00  0.1343E+01
  -0.308  0.2144E+00  0.1345E+01
  -0.298  0.2176E+00  0.1347E+01
  -0.288  0.2209E+00  0.1349E+01
  -0.278  0.2242E+00  0.1352E+01
  -0.268  0.2276E+00  0.1354E+01
  -0.258  0.2310E+00  0.1356E+01
  -0.248  0.2344E+00  0.1358E+01
  -0.238  0.2378E+00  0.1361E+01
  -0.228  0.2413E+00  0.1363E+01
  -0.218  0.2448E+00  0.1366E+01
  -0.208  0.2483E+00  0.1368E+01
  -0.198  0.2518E+00  0.1371E+01
  -0.188  0.2554E+00  0.1373E+01
  -0.178  0.2589E+00  0.1376E+01
  -0.168  0.2624E+00  0.1378E+01
  -0.158  0.2659E+00  0.1381E+01
  -0.148  0.2695E+00  0.1384E+01
  -0.138  0.2730E+00  0.1387E+01
  -0.128  0.2764E+00  0.1389E+01
  -0.118  0.2799E+00  0.1392E+01
  -0.108  0.2833E+00  0.1395E+01
  -0.098  0.2868E+00  0.1398E+01
  -0.088  0.2901E+00  0.1401E+01
  -0.078  0.2935E+00  0.1404E+01
  -0.068  0.2968E+00  0.1407E+01
  -0.058  0.3000E+00  0.1410E+01
  -0.048  0.3032E+00  0.1413E+01
  -0.038  0.3064E+00  0.1416E+01
  -0.028  0.3095E+00  0.1419E+01
  -0.018  0.3125E+00  0.1422E+01
  -0.008  0.3155E+00  0.1425E+01
   0.002  0.3184E+00  0.1428E+01
   0.012  0.3212E+00  0.1431E+01
   0.022  0.3239E+00  0.1435E+01
   0.032  0.3266E+00  0.1438E+01
   0.042  0.3292E+00  0.1441E+01
   0.052  0.3317E+00  0.1445E+01
   0.062  0.3341E+00  0.1448E+01
   0.072  0.3364E+00  0.1451E+01
   0.082  0.3387E+00  0.1455E+01
   0.092  0.3408E+00  0.1458E+01
   0.102  0.3428E+00  0.1462E+01
   0.112  0.3448E+00  0.1465E+01
   0.122  0.3466E+00  0.1468E+01
   0.132  0.3483E+00  0.1472E+01
   0.142  0.3499E+00  0.1475E+01
   0.152  0.3514E+00  0.1479E+01
   0.162  0.3528E+00  0.1482E+01
   0.172  0.3541E+00  0.1486E+01
   0.182  0.3553E+00  0.1490E+01
   0.192  0.3563E+00  0.1493E+01
   0.202  0.3573E+00  0.1497E+01
   0.212  0.3581E+00  0.1500E+01
   0.222  0.3588E+00  0.1504E+01
   0.232  0.3594E+00  0.1507E+01
   0.242  0.3598E+00  0.1511E+01
   0.252  0.3602E+00  0.1515E+01
   0.262  0.3604E+00  0.1518E+01
   0.272  0.3605E+00  0.1522E+01
   0.282  0.3605E+00  0.1525E+01
   0.292  0.3604E+00  0.1529E+01
   0.302  0.3602E+00  0.1533E+01
   0.312  0.3598E+00  0.1536E+01
   0.322  0.3594E+00  0.1540E+01
   0.332  0.3588E+00  0.1543E+01
   0.342  0.3581E+00  0.1547E+01
   0.352  0.3573E+00  0.1551E+01
   0.362  0.3564E+00  0.1554E+01
   0.372  0.3554E+00  0.1558E+01
   0.382  0.3543E+00  0.1561E+01
   0.392  0.3531E+00  0.1565E+01
   0.402  0.3518E+00  0.1568E+01
   0.412  0.3504E+00  0.1572E+01
   0.422  0.3489E+00  0.1575E+01
   0.432  0.3473E+00  0.1579E+01
   0.442  0.3456E+00  0.1582E+01
   0.452  0.3438E+00  0.1586E+01
   0.462  0.3420E+00  0.1589E+01
   0.472  0.3401E+00  0.1592E+01
   0.482  0.3380E+00  0.1596E+01
   0.492  0.3360E+00  0.1599E+01
   0.502  0.3338E+00  0.1603E+01
   0.512  0.3316E+00  0.1606E+01
   0.522  0.3293E+00  0.1609E+01
   0.532  0.3270E+00  0.1612E+01
   0.542  0.3246E+00  0.1616E+01
   0.552  0.3221E+00  0.1619E+01
   0.562  0.3196E+00  0.1622E+01
   0.572  0.3171E+00  0.1625E+01
   0.582  0.3145E+00  0.1628E+01
   0.592  0.3119E+00  0.1632E+01
   0.602  0.3092E+00  0.1635E+01
   0.612  0.3065E+00  0.1638E+01
   0.622  0.3038E+00  0.1641E+01
   0.632  0.3011E+00  0.1644E+01
   0.642  0.2984E+00  0.1647E+01
   0.652  0.2956E+00  0.1650E+01
   0.662  0.2929E+00  0.1653E+01
   0.672  0.2901E+00  0.1656E+01
   0.682  0.2874E+00  0.1658E+01
   0.692  0.2846E+00  0.1661E+01
   0.702  0.2819E+00  0.1664E+01
   0.712  0.2792E+00  0.1667E+01
   0.722  0.2765E+00  0.1670E+01
   0.732  0.2739E+00  0.1672E+01
   0.742  0.2712E+00  0.1675E+01
   0.752  0.2687E+00  0.1678E+01
   0.762  0.2661E+00  0.1680E+01
   0.772  0.2636E+00  0.1683E+01
   0.782  0.2611E+00  0.1686E+01
   0.792  0.2587E+00  0.1688E+01
   0.802  0.2564E+00  0.1691E+01
   0.812  0.2541E+00  0.1693E+01
   0.822  0.2519E+00  0.1696E+01
   0.832  0.2497E+00  0.1698E+01
   0.842  0.2477E+00  0.1701E+01
   0.852  0.2457E+00  0.1703E+01
   0.862  0.2437E+00  0.1706E+01
   0.872  0.2419E+00  0.1708E+01
   0.882  0.2402E+00  0.1711E+01
   0.892  0.2385E+00  0.1713E+01
   0.902  0.2369E+00  0.1715E+01
   0.912  0.2355E+00  0.1718E+01
   0.922  0.2341E+00  0.1720E+01
   0.932  0.2328E+00  0.1722E+01
   0.942  0.2317E+00  0.1725E+01
   0.952  0.2306E+00  0.1727E+01
   0.962  0.2296E+00  0.1729E+01
   0.972  0.2288E+00  0.1732E+01
   0.982  0.2281E+00  0.1734E+01
   0.992  0.2274E+00  0.1736E+01
   1.002  0.2269E+00  0.1738E+01
   1.012  0.2265E+00  0.1741E+01
   1.022  0.2262E+00  0.1743E+01
   1.032  0.2260E+00  0.1745E+01
   1.042  0.2260E+00  0.1747E+01
   1.052  0.2260E+00  0.1750E+01
   1.062  0.2261E+00  0.1752E+01
   1.072  0.2264E+00  0.1754E+01
   1.082  0.2268E+00  0.1756E+01
   1.092  0.2272E+00  0.1759E+01
   1.102  0.2278E+00  0.1761E+01
   1.112  0.2285E+00  0.1763E+01
   1.122  0.2292E+00  0.1766E+01
   1.132  0.2301E+00  0.1768E+01
   1.142  0.2311E+00  0.1770E+01
   1.152  0.2321E+00  0.1773E+01
   1.162  0.2333E+00  0.1775E+01
   1.172  0.2345E+00  0.1777E+01
   1.182  0.2358E+00  0.1780E+01
   1.192  0.2371E+00  0.1782E+01
   1.202  0.2386E+00  0.1784E+01
   1.212  0.2401E+00  0.1787E+01
   1.222  0.2417E+00  0.1789E+01
   1.232  0.2433E+00  0.1792E+01
   1.242  0.2450E+00  0.1794E+01
   1.252  0.2467E+00  0.1796E+01
   1.262  0.2485E+00  0.1799E+01
   1.272  0.2503E+00  0.1801E+01
   1.282  0.2521E+00  0.1804E+01
   1.292  0.2540E+00  0.1807E+01
   1.302  0.2559E+00  0.1809E+01
   1.312  0.2578E+00  0.1812E+01
   1.322  0.2597E+00  0.1814E+01
   1.332  0.2616E+00  0.1817E+01
   1.342  0.2635E+00  0.1820E+01
   1.352  0.2654E+00  0.1822E+01
   1.362  0.2673E+00  0.1825E+01
   1.372  0.2691E+00  0.1828E+01
   1.382  0.2710E+00  0.1830E+01
   1.392  0.2728E+00  0.1833E+01
   1.402  0.2746E+00  0.1836E+01
   1.412  0.2764E+00  0.1838E+01
   1.422  0.2781E+00  0.1841E+01
   1.432  0.2797E+00  0.1844E+01
   1.442  0.2814E+00  0.1847E+01
   1.452  0.2829E+00  0.1850E+01
   1.462  0.2844E+00  0.1853E+01
   1.472  0.2859E+00  0.1855E+01
   1.482  0.2872E+00  0.1858E+01
   1.492  0.2885E+00  0.1861E+01
   1.502  0.2898E+00  0.1864E+01
   1.512  0.2909E+00  0.1867E+01
   1.522  0.2920E+00  0.1870E+01
   1.532  0.2930E+00  0.1873E+01
   1.542  0.2939E+00  0.1876E+01
   1.552  0.2947E+00  0.1879E+01
   1.562  0.2955E+00  0.1882E+01
   1.572  0.2961E+00  0.1885E+01
   1.582  0.2967E+00  0.1888E+01
   1.592  0.2972E+00  0.1891E+01
   1.602  0.2976E+00  0.1894E+01
   1.612  0.2979E+00  0.1897E+01
   1.622  0.2981E+00  0.1900E+01
   1.632  0.2982E+00  0.1902E+01
   1.642  0.2982E+00  0.1905E+01
   1.652  0.2982E+00  0.1908E+01
   1.662  0.2980E+00  0.1911E+01
   1.672  0.2978E+00  0.1914E+01
   1.682  0.2975E+00  0.1917E+01
   1.692  0.2971E+00  0.1920E+01
   1.702  0.2967E+00  0.1923E+01
   1.712  0.2961E+00  0.1926E+01
   1.722  0.2955E+00  0.1929E+01
   1.732  0.2948E+00  0.1932E+01
   1.742  0.2940E+00  0.1935E+01
   1.752  0.2932E+00  0.1938E+01
   1.762  0.2923E+00  0.1941E+01
   1.772  0.2914E+00  0.1944E+01
   1.782  0.2903E+00  0.1947E+01
   1.792  0.2893E+00  0.1950E+01
   1.802  0.2882E+00  0.1953E+01
   1.812  0.2870E+00  0.1955E+01
   1.822  0.2858E+00  0.1958E+01
   1.832  0.2845E+00  0.1961E+01
   1.842  0.2833E+00  0.1964E+01
   1.852  0.2820E+00  0.1967E+01
   1.862  0.2806E+00  0.1970E+01
   1.872  0.2792E+00  0.1972E+01
   1.882  0.2779E+00  0.1975E+01
   1.892  0.2765E+00  0.1978E+01
   1.902  0.2750E+00  0.1981E+01
   1.912  0.2736E+00  0.1983E+01
   1.922  0.2722E+00  0.1986E+01
   1.932  0.2707E+00  0.1989E+01
   1.942  0.2693E+00  0.1992E+01
   1.952  0.2679E+00  0.1994E+01
   1.962  0.2664E+00  0.1997E+01
   1.972  0.2650E+00  0.2000E+01
   1.982  0.2636E+00  0.2002E+01
   1.992  0.2622E+00  0.2005E+01
   2.002  0.2609E+00  0.2007E+01
   2.012  0.2595E+00  0.2010E+01
   2.022  0.2582E+00  0.2013E+01
   2.032  0.2569E+00  0.2015E+01
   2.042  0.2557E+00  0.2018E+01
   2.052  0.2545E+00  0.2020E+01
   2.062  0.2533E+00  0.2023E+01
   2.072  0.2521E+00  0.2025E+01
   2.082  0.2510E+00  0.2028E+01
   2.092  0.2499E+00  0.2030E+01
   2.102  0.2489E+00  0.2033E+01
   2.112  0.2479E+00  0.2035E+01
   2.122  0.2470E+00  0.2038E+01
   2.132  0.2461E+00  0.2040E+01
   2.142  0.2452E+00  0.2043E+01
   2.152  0.2444E+00  0.2045E+01
   2.162  0.2436E+00  0.2048E+01
   2.172  0.2429E+00  0.2050E+01
   2.182  0.2423E+00  0.2052E+01
   2.192  0.2416E+00  0.2055E+01
   2.202  0.2411E+00  0.2057E+01
   2.212  0.2406E+00  0.2060E+01
   2.222  0.2401E+00  0.2062E+01
   2.232  0.2397E+00  0.2064E+01
   2.242  0.2393E+00  0.2067E+01
   2.252  0.2390E+00  0.2069E+01
   2.262  0.2388E+00  0.2072E+01
   2.272  0.2386E+00  0.2074E+01
   2.282  0.2384E+00  0.2076E+01
   2.292  0.2383E+00  0.2079E+01
   2.302  0.2382E+00  0.2081E+01
   2.312  0.2382E+00  0.2084E+01
   2.322  0.2383E+00  0.2086E+01
   2.332  0.2384E+00  0.2088E+01
   2.342  0.2385E+00  0.2091E+01
   2.352  0.2387E+00  0.2093E+01
   2.362  0.2389E+00  0.2095E+01
   2.372  0.2392E+00  0.2098E+01
   2.382  0.2395E+00  0.2100E+01
   2.392  0.2399E+00  0.2103E+01
   2.402  0.2403E+00  0.2105E+01
   2.412  0.2407E+00  0.2107E+01
   2.422  0.2412E+00  0.2110E+01
   2.432  0.2418E+00  0.2112E+01
   2.442  0.2424E+00  0.2115E+01
   2.452  0.2430E+00  0.2117E+01
   2.462  0.2437E+00  0.2120E+01
   2.472  0.2444E+00  0.2122E+01
   2.482  0.2451E+00  0.2124E+01
   2.492  0.2459E+00  0.2127E+01
   2.502  0.2468E+00  0.2129E+01
   2.512  0.2477E+00  0.2132E+01
   2.522  0.2486E+00  0.2134E+01
   2.532  0.2496E+00  0.2137E+01
   2.542  0.2506E+00  0.2139E+01
   2.552  0.2517E+00  0.2142E+01
   2.562  0.2528E+00  0.2144E+01
   2.572  0.2540E+00  0.2147E+01
   2.582  0.2552E+00  0.2149E+01
   2.592  0.2564E+00  0.2152E+01
   2.602  0.2577E+00  0.2155E+01
   2.612  0.2591E+00  0.2157E+01
   2.622  0.2605E+00  0.2160E+01
   2.632  0.2619E+00  0.2162E+01
   2.642  0.2634E+00  0.2165E+01
   2.652  0.2650E+00  0.2168E+01
   2.662  0.2666E+00  0.2170E+01
   2.672  0.2682E+00  0.2173E+01
   2.682  0.2700E+00  0.2176E+01
   2.692  0.2717E+00  0.2178E+01
   2.702  0.2736E+00  0.2181E+01
   2.712  0.2755E+00  0.2184E+01
   2.722  0.2774E+00  0.2187E+01
   2.732  0.2794E+00  0.2190E+01
   2.742  0.2815E+00  0.2192E+01
   2.752  0.2836E+00  0.2195E+01
   2.762  0.2859E+00  0.2198E+01
   2.772  0.2881E+00  0.2201E+01
   2.782  0.2905E+00  0.2204E+01
   2.792  0.2929E+00  0.2207E+01
   2.802  0.2954E+00  0.2210E+01
   2.812  0.2980E+00  0.2213E+01
   2.822  0.3006E+00  0.2216E+01
   2.832  0.3033E+00  0.2219E+01
   2.842  0.3061E+00  0.2222E+01
   2.852  0.3090E+00  0.2225E+01
   2.862  0.3119E+00  0.2228E+01
   2.872  0.3150E+00  0.2231E+01
   2.882  0.3181E+00  0.2234E+01
   2.892  0.3213E+00  0.2238E+01
   2.902  0.3246E+00  0.2241E+01
   2.912  0.3279E+00  0.2244E+01
   2.922  0.3314E+00  0.2247E+01
   2.932  0.3349E+00  0.2251E+01
   2.942  0.3385E+00  0.2254E+01
   2.952  0.3422E+00  0.2258E+01
   2.962  0.3460E+00  0.2261E+01
   2.972  0.3499E+00  0.2265E+01
   2.982  0.3539E+00  0.2268E+01
   2.992  0.3579E+00  0.2272E+01
   3.002  0.3621E+00  0.2275E+01
   3.012  0.3663E+00  0.2279E+01
   3.022  0.3706E+00  0.2283E+01
   3.032  0.3749E+00  0.2286E+01
   3.042  0.3794E+00  0.2290E+01
   3.052  0.3839E+00  0.2294E+01
   3.062  0.3886E+00  0.2298E+01
   3.072  0.3933E+00  0.2302E+01
   3.082  0.3980E+00  0.2306E+01
   3.092  0.4028E+00  0.2310E+01
   3.102  0.4077E+00  0.2314E+01
   3.112  0.4127E+00  0.2318E+01
   3.122  0.4177E+00  0.2322E+01
   3.132  0.4228E+00  0.2326E+01
   3.142  0.4279E+00  0.2331E+01
   3.152  0.4331E+00  0.2335E+01
   3.162  0.4383E+00  0.2339E+01
   3.172  0.4436E+00  0.2344E+01
   3.182  0.4489E+00  0.2348E+01
   3.192  0.4542E+00  0.2353E+01
   3.202  0.4596E+00  0.2358E+01
   3.212  0.4650E+00  0.2362E+01
   3.222  0.4703E+00  0.2367E+01
   3.232  0.4757E+00  0.2372E+01
   3.242  0.4811E+00  0.2376E+01
   3.252  0.4865E+00  0.2381E+01
   3.262  0.4919E+00  0.2386E+01
   3.272  0.4973E+00  0.2391E+01
   3.282  0.5026E+00  0.2396E+01
   3.292  0.5079E+00  0.2401E+01
   3.302  0.5132E+00  0.2406E+01
   3.312  0.5184E+00  0.2412E+01
   3.322  0.5236E+00  0.2417E+01
   3.332  0.5287E+00  0.2422E+01
   3.342  0.5337E+00  0.2427E+01
   3.352  0.5387E+00  0.2433E+01
   3.362  0.5436E+00  0.2438E+01
   3.372  0.5483E+00  0.2444E+01
   3.382  0.5530E+00  0.2449E+01
   3.392  0.5576E+00  0.2455E+01
   3.402  0.5621E+00  0.2460E+01
   3.412  0.5664E+00  0.2466E+01
   3.422  0.5706E+00  0.2472E+01
   3.432  0.5747E+00  0.2478E+01
   3.442  0.5786E+00  0.2483E+01
   3.452  0.5823E+00  0.2489E+01
   3.462  0.5859E+00  0.2495E+01
   3.472  0.5894E+00  0.2501E+01
   3.482  0.5927E+00  0.2507E+01
   3.492  0.5957E+00  0.2513E+01
   3.502  0.5986E+00  0.2519E+01
   3.512  0.6013E+00  0.2525E+01
   3.522  0.6038E+00  0.2531E+01
   3.532  0.6061E+00  0.2537E+01
   3.542  0.6082E+00  0.2543E+01
   3.552  0.6101E+00  0.2549E+01
   3.562  0.6118E+00  0.2555E+01
   3.572  0.6132E+00  0.2561E+01
   3.582  0.6144E+00  0.2568E+01
   3.592  0.6154E+00  0.2574E+01
   3.602  0.6162E+00  0.2580E+01
   3.612  0.6167E+00  0.2586E+01
   3.622  0.6170E+00  0.2592E+01
   3.632  0.6170E+00  0.2598E+01
   3.642  0.6168E+00  0.2605E+01
   3.652  0.6164E+00  0.2611E+01
   3.662  0.6157E+00  0.2617E+01
   3.672  0.6148E+00  0.2623E+01
   3.682  0.6136E+00  0.2629E+01
   3.692  0.6122E+00  0.2635E+01
   3.702  0.6106E+00  0.2641E+01
   3.712  0.6087E+00  0.2647E+01
   3.722  0.6066E+00  0.2654E+01
   3.732  0.6043E+00  0.2660E+01
   3.742  0.6018E+00  0.2666E+01
   3.752  0.5990E+00  0.2672E+01
   3.762  0.5960E+00  0.2678E+01
   3.772  0.5928E+00  0.2683E+01
   3.782  0.5894E+00  0.2689E+01
   3.792  0.5858E+00  0.2695E+01
   3.802  0.5820E+00  0.2701E+01
   3.812  0.5780E+00  0.2707E+01
   3.822  0.5739E+00  0.2713E+01
   3.832  0.5695E+00  0.2718E+01
   3.842  0.5650E+00  0.2724E+01
   3.852  0.5603E+00  0.2729E+01
   3.862  0.5555E+00  0.2735E+01
   3.872  0.5505E+00  0.2741E+01
   3.882  0.5454E+00  0.2746E+01
   3.892  0.5402E+00  0.2751E+01
   3.902  0.5349E+00  0.2757E+01
   3.912  0.5294E+00  0.2762E+01
   3.922  0.5238E+00  0.2767E+01
   3.932  0.5182E+00  0.2772E+01
   3.942  0.5125E+00  0.2778E+01
   3.952  0.5066E+00  0.2783E+01
   3.962  0.5008E+00  0.2788E+01
   3.972  0.4949E+00  0.2793E+01
   3.982  0.4889E+00  0.2798E+01
   3.992  0.4829E+00  0.2802E+01
   4.002  0.4769E+00  0.2807E+01
   4.012  0.4708E+00  0.2812E+01
   4.022  0.4648E+00  0.2816E+01
   4.032  0.4587E+00  0.2821E+01
   4.042  0.4527E+00  0.2826E+01
   4.052  0.4466E+00  0.2830E+01
   4.062  0.4407E+00  0.2834E+01
   4.072  0.4347E+00  0.2839E+01
   4.082  0.4288E+00  0.2843E+01
   4.092  0.4229E+00  0.2847E+01
   4.102  0.4171E+00  0.2851E+01
   4.112  0.4114E+00  0.2856E+01
   4.122  0.4057E+00  0.2860E+01
   4.132  0.4002E+00  0.2864E+01
   4.142  0.3947E+00  0.2868E+01
   4.152  0.3893E+00  0.2871E+01
   4.162  0.3840E+00  0.2875E+01
   4.172  0.3789E+00  0.2879E+01
   4.182  0.3738E+00  0.2883E+01
   4.192  0.3689E+00  0.2887E+01
   4.202  0.3640E+00  0.2890E+01
   4.212  0.3593E+00  0.2894E+01
   4.222  0.3548E+00  0.2897E+01
   4.232  0.3504E+00  0.2901E+01
   4.242  0.3461E+00  0.2904E+01
   4.252  0.3419E+00  0.2908E+01
   4.262  0.3379E+00  0.2911E+01
   4.272  0.3341E+00  0.2914E+01
   4.282  0.3304E+00  0.2918E+01
   4.292  0.3268E+00  0.2921E+01
   4.302  0.3234E+00  0.2924E+01
   4.312  0.3202E+00  0.2927E+01
   4.322  0.3171E+00  0.2931E+01
   4.332  0.3141E+00  0.2934E+01
   4.342  0.3113E+00  0.2937E+01
   4.352  0.3087E+00  0.2940E+01
   4.362  0.3062E+00  0.2943E+01
   4.372  0.3038E+00  0.2946E+01
   4.382  0.3016E+00  0.2949E+01
   4.392  0.2995E+00  0.2952E+01
   4.402  0.2976E+00  0.2955E+01
   4.412  0.2958E+00  0.2958E+01
   4.422  0.2942E+00  0.2961E+01
   4.432  0.2927E+00  0.2964E+01
   4.442  0.2913E+00  0.2967E+01
   4.452  0.2900E+00  0.2970E+01
   4.462  0.2888E+00  0.2973E+01
   4.472  0.2878E+00  0.2975E+01
   4.482  0.2869E+00  0.2978E+01
   4.492  0.2861E+00  0.2981E+01
   4.502  0.2853E+00  0.2984E+01
   4.512  0.2847E+00  0.2987E+01
   4.522  0.2842E+00  0.2990E+01
   4.532  0.2837E+00  0.2993E+01
   4.542  0.2833E+00  0.2995E+01
   4.552  0.2830E+00  0.2998E+01
   4.562  0.2828E+00  0.3001E+01
   4.572  0.2826E+00  0.3004E+01
   4.582  0.2825E+00  0.3007E+01
   4.592  0.2824E+00  0.3010E+01
   4.602  0.2823E+00  0.3012E+01
   4.612  0.2823E+00  0.3015E+01
   4.622  0.2823E+00  0.3018E+01
   4.632  0.2823E+00  0.3021E+01
   4.642  0.2824E+00  0.3024E+01
   4.652  0.2824E+00  0.3026E+01
   4.662  0.2825E+00  0.3029E+01
   4.672  0.2826E+00  0.3032E+01
   4.682  0.2826E+00  0.3035E+01
   4.692  0.2826E+00  0.3038E+01
   4.702  0.2827E+00  0.3041E+01
   4.712  0.2827E+00  0.3043E+01
   4.722  0.2826E+00  0.3046E+01
   4.732  0.2825E+00  0.3049E+01
   4.742  0.2824E+00  0.3052E+01
   4.752  0.2823E+00  0.3055E+01
   4.762  0.2821E+00  0.3058E+01
   4.772  0.2818E+00  0.3060E+01
   4.782  0.2815E+00  0.3063E+01
   4.792  0.2811E+00  0.3066E+01
   4.802  0.2807E+00  0.3069E+01
   4.812  0.2802E+00  0.3072E+01
   4.822  0.2797E+00  0.3074E+01
   4.832  0.2791E+00  0.3077E+01
   4.842  0.2784E+00  0.3080E+01
   4.852  0.2776E+00  0.3083E+01
   4.862  0.2768E+00  0.3086E+01
   4.872  0.2759E+00  0.3088E+01
   4.882  0.2749E+00  0.3091E+01
   4.892  0.2739E+00  0.3094E+01
   4.902  0.2728E+00  0.3096E+01
   4.912  0.2716E+00  0.3099E+01
   4.922  0.2704E+00  0.3102E+01
   4.932  0.2691E+00  0.3105E+01
   4.942  0.2678E+00  0.3107E+01
   4.952  0.2664E+00  0.3110E+01
   4.962  0.2649E+00  0.3113E+01
   4.972  0.2634E+00  0.3115E+01
   4.982  0.2618E+00  0.3118E+01
   4.992  0.2602E+00  0.3120E+01
   5.002  0.2586E+00  0.3123E+01
   5.012  0.2569E+00  0.3126E+01
   5.022  0.2552E+00  0.3128E+01
   5.032  0.2534E+00  0.3131E+01
   5.042  0.2517E+00  0.3133E+01
   5.052  0.2499E+00  0.3136E+01
   5.062  0.2481E+00  0.3138E+01
   5.072  0.2463E+00  0.3141E+01
   5.082  0.2445E+00  0.3143E+01
   5.092  0.2427E+00  0.3146E+01
   5.102  0.2410E+00  0.3148E+01
   5.112  0.2392E+00  0.3150E+01
   5.122  0.2375E+00  0.3153E+01
   5.132  0.2358E+00  0.3155E+01
   5.142  0.2341E+00  0.3157E+01
   5.152  0.2325E+00  0.3160E+01
   5.162  0.2310E+00  0.3162E+01
   5.172  0.2295E+00  0.3164E+01
   5.182  0.2280E+00  0.3167E+01
   5.192  0.2266E+00  0.3169E+01
   5.202  0.2253E+00  0.3171E+01
   5.212  0.2241E+00  0.3173E+01
   5.222  0.2230E+00  0.3176E+01
   5.232  0.2219E+00  0.3178E+01
   5.242  0.2209E+00  0.3180E+01
   5.252  0.2201E+00  0.3182E+01
   5.262  0.2193E+00  0.3184E+01
   5.272  0.2186E+00  0.3187E+01
   5.282  0.2181E+00  0.3189E+01
   5.292  0.2177E+00  0.3191E+01
   5.302  0.2173E+00  0.3193E+01
   5.312  0.2171E+00  0.3195E+01
   5.322  0.2171E+00  0.3197E+01
   5.332  0.2171E+00  0.3200E+01
   5.342  0.2173E+00  0.3202E+01
   5.352  0.2176E+00  0.3204E+01
   5.362  0.2180E+00  0.3206E+01
   5.372  0.2186E+00  0.3208E+01
   5.382  0.2193E+00  0.3211E+01
   5.392  0.2201E+00  0.3213E+01
   5.402  0.2210E+00  0.3215E+01
   5.412  0.2221E+00  0.3217E+01
   5.422  0.2233E+00  0.3219E+01
   5.432  0.2246E+00  0.3222E+01
   5.442  0.2260E+00  0.3224E+01
   5.452  0.2276E+00  0.3226E+01
   5.462  0.2293E+00  0.3228E+01
   5.472  0.2311E+00  0.3231E+01
   5.482  0.2330E+00  0.3233E+01
   5.492  0.2350E+00  0.3235E+01
   5.502  0.2371E+00  0.3238E+01
   5.512  0.2393E+00  0.3240E+01
   5.522  0.2416E+00  0.3243E+01
   5.532  0.2440E+00  0.3245E+01
   5.542  0.2465E+00  0.3248E+01
   5.552  0.2491E+00  0.3250E+01
   5.562  0.2517E+00  0.3253E+01
   5.572  0.2544E+00  0.3255E+01
   5.582  0.2571E+00  0.3258E+01
   5.592  0.2600E+00  0.3260E+01
   5.602  0.2628E+00  0.3263E+01
   5.612  0.2657E+00  0.3266E+01
   5.622  0.2686E+00  0.3268E+01
   5.632  0.2716E+00  0.3271E+01
   5.642  0.2746E+00  0.3274E+01
   5.652  0.2776E+00  0.3276E+01
   5.662  0.2806E+00  0.3279E+01
   5.672  0.2836E+00  0.3282E+01
   5.682  0.2866E+00  0.3285E+01
   5.692  0.2896E+00  0.3288E+01
   5.702  0.2926E+00  0.3291E+01
   5.712  0.2955E+00  0.3294E+01
   5.722  0.2984E+00  0.3297E+01
   5.732  0.3013E+00  0.3300E+01
   5.742  0.3042E+00  0.3303E+01
   5.752  0.3069E+00  0.3306E+01
   5.762  0.3097E+00  0.3309E+01
   5.772  0.3124E+00  0.3312E+01
   5.782  0.3150E+00  0.3315E+01
   5.792  0.3175E+00  0.3318E+01
   5.802  0.3200E+00  0.3322E+01
   5.812  0.3224E+00  0.3325E+01
   5.822  0.3247E+00  0.3328E+01
   5.832  0.3269E+00  0.3331E+01
   5.842  0.3290E+00  0.3335E+01
   5.852  0.3311E+00  0.3338E+01
   5.862  0.3330E+00  0.3341E+01
   5.872  0.3349E+00  0.3345E+01
   5.882  0.3366E+00  0.3348E+01
   5.892  0.3383E+00  0.3351E+01
   5.902  0.3399E+00  0.3355E+01
   5.912  0.3413E+00  0.3358E+01
   5.922  0.3427E+00  0.3362E+01
   5.932  0.3440E+00  0.3365E+01
   5.942  0.3451E+00  0.3369E+01
   5.952  0.3462E+00  0.3372E+01
   5.962  0.3472E+00  0.3375E+01
   5.972  0.3480E+00  0.3379E+01
   5.982  0.3488E+00  0.3382E+01
   5.992  0.3495E+00  0.3386E+01
   6.002  0.3501E+00  0.3389E+01
   6.012  0.3507E+00  0.3393E+01
   6.022  0.3511E+00  0.3396E+01
   6.032  0.3515E+00  0.3400E+01
   6.042  0.3518E+00  0.3403E+01
   6.052  0.3520E+00  0.3407E+01
   6.062  0.3522E+00  0.3411E+01
   6.072  0.3523E+00  0.3414E+01
   6.082  0.3524E+00  0.3418E+01
   6.092  0.3524E+00  0.3421E+01
   6.102  0.3524E+00  0.3425E+01
   6.112  0.3524E+00  0.3428E+01
   6.122  0.3523E+00  0.3432E+01
   6.132  0.3522E+00  0.3435E+01
   6.142  0.3521E+00  0.3439E+01
   6.152  0.3519E+00  0.3442E+01
   6.162  0.3518E+00  0.3446E+01
   6.172  0.3517E+00  0.3449E+01
   6.182  0.3516E+00  0.3453E+01
   6.192  0.3515E+00  0.3456E+01
   6.202  0.3514E+00  0.3460E+01
   6.212  0.3514E+00  0.3463E+01
   6.222  0.3514E+00  0.3467E+01
   6.232  0.3515E+00  0.3470E+01
   6.242  0.3516E+00  0.3474E+01
   6.252  0.3517E+00  0.3477E+01
   6.262  0.3519E+00  0.3481E+01
   6.272  0.3522E+00  0.3484E+01
   6.282  0.3526E+00  0.3488E+01
   6.292  0.3530E+00  0.3491E+01
   6.302  0.3536E+00  0.3495E+01
   6.312  0.3542E+00  0.3499E+01
   6.322  0.3549E+00  0.3502E+01
   6.332  0.3557E+00  0.3506E+01
   6.342  0.3566E+00  0.3509E+01
   6.352  0.3576E+00  0.3513E+01
   6.362  0.3587E+00  0.3516E+01
   6.372  0.3600E+00  0.3520E+01
   6.382  0.3613E+00  0.3524E+01
   6.392  0.3628E+00  0.3527E+01
   6.402  0.3643E+00  0.3531E+01
   6.412  0.3660E+00  0.3535E+01
   6.422  0.3678E+00  0.3538E+01
   6.432  0.3698E+00  0.3542E+01
   6.442  0.3718E+00  0.3546E+01
   6.452  0.3740E+00  0.3549E+01
   6.462  0.3763E+00  0.3553E+01
   6.472  0.3787E+00  0.3557E+01
   6.482  0.3812E+00  0.3561E+01
   6.492  0.3839E+00  0.3565E+01
   6.502  0.3866E+00  0.3568E+01
   6.512  0.3895E+00  0.3572E+01
   6.522  0.3924E+00  0.3576E+01
   6.532  0.3955E+00  0.3580E+01
   6.542  0.3987E+00  0.3584E+01
   6.552  0.4019E+00  0.3588E+01
   6.562  0.4053E+00  0.3592E+01
   6.572  0.4087E+00  0.3596E+01
   6.582  0.4122E+00  0.3600E+01
   6.592  0.4158E+00  0.3605E+01
   6.602  0.4195E+00  0.3609E+01
   6.612  0.4232E+00  0.3613E+01
   6.622  0.4270E+00  0.3617E+01
   6.632  0.4308E+00  0.3622E+01
   6.642  0.4347E+00  0.3626E+01
   6.652  0.4386E+00  0.3630E+01
   6.662  0.4425E+00  0.3635E+01
   6.672  0.4464E+00  0.3639E+01
   6.682  0.4504E+00  0.3644E+01
   6.692  0.4544E+00  0.3648E+01
   6.702  0.4584E+00  0.3653E+01
   6.712  0.4623E+00  0.3658E+01
   6.722  0.4663E+00  0.3662E+01
   6.732  0.4703E+00  0.3667E+01
   6.742  0.4742E+00  0.3672E+01
   6.752  0.4780E+00  0.3676E+01
   6.762  0.4819E+00  0.3681E+01
   6.772  0.4857E+00  0.3686E+01
   6.782  0.4894E+00  0.3691E+01
   6.792  0.4931E+00  0.3696E+01
   6.802  0.4967E+00  0.3701E+01
   6.812  0.5002E+00  0.3706E+01
   6.822  0.5036E+00  0.3711E+01
   6.832  0.5070E+00  0.3716E+01
   6.842  0.5103E+00  0.3721E+01
   6.852  0.5134E+00  0.3726E+01
   6.862  0.5165E+00  0.3731E+01
   6.872  0.5194E+00  0.3737E+01
   6.882  0.5223E+00  0.3742E+01
   6.892  0.5250E+00  0.3747E+01
   6.902  0.5276E+00  0.3752E+01
   6.912  0.5301E+00  0.3758E+01
   6.922  0.5324E+00  0.3763E+01
   6.932  0.5346E+00  0.3768E+01
   6.942  0.5367E+00  0.3774E+01
   6.952  0.5386E+00  0.3779E+01
   6.962  0.5404E+00  0.3784E+01
   6.972  0.5421E+00  0.3790E+01
   6.982  0.5436E+00  0.3795E+01
   6.992  0.5449E+00  0.3801E+01
   7.002  0.5461E+00  0.3806E+01
   7.012  0.5472E+00  0.3812E+01
   7.022  0.5481E+00  0.3817E+01
   7.032  0.5489E+00  0.3823E+01
   7.042  0.5495E+00  0.3828E+01
   7.052  0.5500E+00  0.3834E+01
   7.062  0.5503E+00  0.3839E+01
   7.072  0.5505E+00  0.3845E+01
   7.082  0.5505E+00  0.3850E+01
   7.092  0.5504E+00  0.3856E+01
   7.102  0.5501E+00  0.3861E+01
   7.112  0.5497E+00  0.3867E+01
   7.122  0.5492E+00  0.3872E+01
   7.132  0.5485E+00  0.3878E+01
   7.142  0.5477E+00  0.3883E+01
   7.152  0.5468E+00  0.3889E+01
   7.162  0.5457E+00  0.3894E+01
   7.172  0.5446E+00  0.3900E+01
   7.182  0.5433E+00  0.3905E+01
   7.192  0.5419E+00  0.3910E+01
   7.202  0.5403E+00  0.3916E+01
   7.212  0.5387E+00  0.3921E+01
   7.222  0.5370E+00  0.3927E+01
   7.232  0.5351E+00  0.3932E+01
   7.242  0.5332E+00  0.3937E+01
   7.252  0.5311E+00  0.3943E+01
   7.262  0.5290E+00  0.3948E+01
   7.272  0.5268E+00  0.3953E+01
   7.282  0.5246E+00  0.3958E+01
   7.292  0.5222E+00  0.3964E+01
   7.302  0.5198E+00  0.3969E+01
   7.312  0.5173E+00  0.3974E+01
   7.322  0.5147E+00  0.3979E+01
   7.332  0.5121E+00  0.3984E+01
   7.342  0.5095E+00  0.3989E+01
   7.352  0.5068E+00  0.3994E+01
   7.362  0.5041E+00  0.3999E+01
   7.372  0.5013E+00  0.4004E+01
   7.382  0.4985E+00  0.4009E+01
   7.392  0.4956E+00  0.4014E+01
   7.402  0.4928E+00  0.4019E+01
   7.412  0.4899E+00  0.4024E+01
   7.422  0.4870E+00  0.4029E+01
   7.432  0.4841E+00  0.4034E+01
   7.442  0.4812E+00  0.4039E+01
   7.452  0.4783E+00  0.4043E+01
   7.462  0.4754E+00  0.4048E+01
   7.472  0.4725E+00  0.4053E+01
   7.482  0.4697E+00  0.4058E+01
   7.492  0.4668E+00  0.4062E+01
   7.502  0.4640E+00  0.4067E+01
   7.512  0.4612E+00  0.4072E+01
   7.522  0.4584E+00  0.4076E+01
   7.532  0.4557E+00  0.4081E+01
   7.542  0.4530E+00  0.4085E+01
   7.552  0.4503E+00  0.4090E+01
   7.562  0.4477E+00  0.4094E+01
   7.572  0.4451E+00  0.4099E+01
   7.582  0.4426E+00  0.4103E+01
   7.592  0.4401E+00  0.4107E+01
   7.602  0.4377E+00  0.4112E+01
   7.612  0.4354E+00  0.4116E+01
   7.622  0.4331E+00  0.4121E+01
   7.632  0.4310E+00  0.4125E+01
   7.642  0.4288E+00  0.4129E+01
   7.652  0.4268E+00  0.4133E+01
   7.662  0.4248E+00  0.4138E+01
   7.672  0.4229E+00  0.4142E+01
   7.682  0.4211E+00  0.4146E+01
   7.692  0.4194E+00  0.4150E+01
   7.702  0.4178E+00  0.4154E+01
   7.712  0.4163E+00  0.4159E+01
   7.722  0.4149E+00  0.4163E+01
   7.732  0.4136E+00  0.4167E+01
   7.742  0.4123E+00  0.4171E+01
   7.752  0.4112E+00  0.4175E+01
   7.762  0.4102E+00  0.4179E+01
   7.772  0.4093E+00  0.4183E+01
   7.782  0.4085E+00  0.4187E+01
   7.792  0.4078E+00  0.4192E+01
   7.802  0.4072E+00  0.4196E+01
   7.812  0.4068E+00  0.4200E+01
   7.822  0.4065E+00  0.4204E+01
   7.832  0.4062E+00  0.4208E+01
   7.842  0.4061E+00  0.4212E+01
   7.852  0.4062E+00  0.4216E+01
   7.862  0.4063E+00  0.4220E+01
   7.872  0.4066E+00  0.4224E+01
   7.882  0.4070E+00  0.4228E+01
   7.892  0.4075E+00  0.4232E+01
   7.902  0.4081E+00  0.4236E+01
   7.912  0.4089E+00  0.4240E+01
   7.922  0.4098E+00  0.4244E+01
   7.932  0.4108E+00  0.4249E+01
   7.942  0.4119E+00  0.4253E+01
   7.952  0.4132E+00  0.4257E+01
   7.962  0.4145E+00  0.4261E+01
   7.972  0.4160E+00  0.4265E+01
   7.982  0.4177E+00  0.4269E+01
   7.992  0.4194E+00  0.4273E+01
   8.002  0.4212E+00  0.4278E+01
   8.012  0.4232E+00  0.4282E+01
   8.022  0.4253E+00  0.4286E+01
   8.032  0.4275E+00  0.4290E+01
   8.042  0.4298E+00  0.4295E+01
   8.052  0.4322E+00  0.4299E+01
   8.062  0.4347E+00  0.4303E+01
   8.072  0.4373E+00  0.4308E+01
   8.082  0.4400E+00  0.4312E+01
   8.092  0.4428E+00  0.4317E+01
   8.102  0.4457E+00  0.4321E+01
   8.112  0.4487E+00  0.4326E+01
   8.122  0.4517E+00  0.4330E+01
   8.132  0.4548E+00  0.4335E+01
   8.142  0.4580E+00  0.4339E+01
   8.152  0.4613E+00  0.4344E+01
   8.162  0.4646E+00  0.4348E+01
   8.172  0.4679E+00  0.4353E+01
   8.182  0.4713E+00  0.4358E+01
   8.192  0.4747E+00  0.4363E+01
   8.202  0.4782E+00  0.4367E+01
   8.212  0.4817E+00  0.4372E+01
   8.222  0.4852E+00  0.4377E+01
   8.232  0.4888E+00  0.4382E+01
   8.242  0.4923E+00  0.4387E+01
   8.252  0.4958E+00  0.4392E+01
   8.262  0.4993E+00  0.4397E+01
   8.272  0.5028E+00  0.4402E+01
   8.282  0.5063E+00  0.4407E+01
   8.292  0.5097E+00  0.4412E+01
   8.302  0.5131E+00  0.4417E+01
   8.312  0.5164E+00  0.4422E+01
   8.322  0.5197E+00  0.4428E+01
   8.332  0.5229E+00  0.4433E+01
   8.342  0.5260E+00  0.4438E+01
   8.352  0.5291E+00  0.4443E+01
   8.362  0.5320E+00  0.4449E+01
   8.372  0.5349E+00  0.4454E+01
   8.382  0.5376E+00  0.4459E+01
   8.392  0.5402E+00  0.4465E+01
   8.402  0.5427E+00  0.4470E+01
   8.412  0.5451E+00  0.4476E+01
   8.422  0.5473E+00  0.4481E+01
   8.432  0.5494E+00  0.4487E+01
   8.442  0.5513E+00  0.4492E+01
   8.452  0.5531E+00  0.4498E+01
   8.462  0.5547E+00  0.4503E+01
   8.472  0.5561E+00  0.4509E+01
   8.482  0.5573E+00  0.4514E+01
   8.492  0.5584E+00  0.4520E+01
   8.502  0.5592E+00  0.4525E+01
   8.512  0.5599E+00  0.4531E+01
   8.522  0.5604E+00  0.4537E+01
   8.532  0.5606E+00  0.4542E+01
   8.542  0.5607E+00  0.4548E+01
   8.552  0.5605E+00  0.4554E+01
   8.562  0.5602E+00  0.4559E+01
   8.572  0.5596E+00  0.4565E+01
   8.582  0.5588E+00  0.4570E+01
   8.592  0.5578E+00  0.4576E+01
   8.602  0.5566E+00  0.4581E+01
   8.612  0.5551E+00  0.4587E+01
   8.622  0.5535E+00  0.4593E+01
   8.632  0.5516E+00  0.4598E+01
   8.642  0.5495E+00  0.4604E+01
   8.652  0.5473E+00  0.4609E+01
   8.662  0.5448E+00  0.4614E+01
   8.672  0.5421E+00  0.4620E+01
   8.682  0.5392E+00  0.4625E+01
   8.692  0.5361E+00  0.4631E+01
   8.702  0.5328E+00  0.4636E+01
   8.712  0.5294E+00  0.4641E+01
   8.722  0.5258E+00  0.4647E+01
   8.732  0.5220E+00  0.4652E+01
   8.742  0.5180E+00  0.4657E+01
   8.752  0.5139E+00  0.4662E+01
   8.762  0.5096E+00  0.4667E+01
   8.772  0.5053E+00  0.4672E+01
   8.782  0.5007E+00  0.4677E+01
   8.792  0.4961E+00  0.4682E+01
   8.802  0.4914E+00  0.4687E+01
   8.812  0.4865E+00  0.4692E+01
   8.822  0.4816E+00  0.4697E+01
   8.832  0.4766E+00  0.4702E+01
   8.842  0.4715E+00  0.4706E+01
   8.852  0.4664E+00  0.4711E+01
   8.862  0.4612E+00  0.4716E+01
   8.872  0.4560E+00  0.4720E+01
   8.882  0.4507E+00  0.4725E+01
   8.892  0.4455E+00  0.4729E+01
   8.902  0.4403E+00  0.4733E+01
   8.912  0.4350E+00  0.4738E+01
   8.922  0.4298E+00  0.4742E+01
   8.932  0.4247E+00  0.4746E+01
   8.942  0.4195E+00  0.4751E+01
   8.952  0.4145E+00  0.4755E+01
   8.962  0.4095E+00  0.4759E+01
   8.972  0.4046E+00  0.4763E+01
   8.982  0.3997E+00  0.4767E+01
   8.992  0.3950E+00  0.4771E+01
   9.002  0.3904E+00  0.4775E+01
   9.012  0.3859E+00  0.4779E+01
   9.022  0.3816E+00  0.4782E+01
   9.032  0.3774E+00  0.4786E+01
   9.042  0.3733E+00  0.4790E+01
   9.052  0.3694E+00  0.4794E+01
   9.062  0.3656E+00  0.4797E+01
   9.072  0.3621E+00  0.4801E+01
   9.082  0.3587E+00  0.4804E+01
   9.092  0.3555E+00  0.4808E+01
   9.102  0.3525E+00  0.4811E+01
   9.112  0.3496E+00  0.4815E+01
   9.122  0.3470E+00  0.4818E+01
   9.132  0.3446E+00  0.4822E+01
   9.142  0.3424E+00  0.4825E+01
   9.152  0.3405E+00  0.4829E+01
   9.162  0.3387E+00  0.4832E+01
   9.172  0.3372E+00  0.4835E+01
   9.182  0.3359E+00  0.4839E+01
   9.192  0.3348E+00  0.4842E+01
   9.202  0.3339E+00  0.4846E+01
   9.212  0.3333E+00  0.4849E+01
   9.222  0.3329E+00  0.4852E+01
   9.232  0.3327E+00  0.4856E+01
   9.242  0.3328E+00  0.4859E+01
   9.252  0.3330E+00  0.4862E+01
   9.262  0.3335E+00  0.4866E+01
   9.272  0.3342E+00  0.4869E+01
   9.282  0.3351E+00  0.4872E+01
   9.292  0.3363E+00  0.4876E+01
   9.302  0.3376E+00  0.4879E+01
   9.312  0.3391E+00  0.4882E+01
   9.322  0.3409E+00  0.4886E+01
   9.332  0.3428E+00  0.4889E+01
   9.342  0.3449E+00  0.4893E+01
   9.352  0.3472E+00  0.4896E+01
   9.362  0.3496E+00  0.4900E+01
   9.372  0.3522E+00  0.4903E+01
   9.382  0.3550E+00  0.4907E+01
   9.392  0.3579E+00  0.4910E+01
   9.402  0.3610E+00  0.4914E+01
   9.412  0.3642E+00  0.4917E+01
   9.422  0.3675E+00  0.4921E+01
   9.432  0.3710E+00  0.4925E+01
   9.442  0.3746E+00  0.4929E+01
   9.452  0.3782E+00  0.4932E+01
   9.462  0.3820E+00  0.4936E+01
   9.472  0.3858E+00  0.4940E+01
   9.482  0.3897E+00  0.4944E+01
   9.492  0.3937E+00  0.4948E+01
   9.502  0.3977E+00  0.4952E+01
   9.512  0.4018E+00  0.4956E+01
   9.522  0.4059E+00  0.4960E+01
   9.532  0.4101E+00  0.4964E+01
   9.542  0.4142E+00  0.4968E+01
   9.552  0.4184E+00  0.4972E+01
   9.562  0.4226E+00  0.4977E+01
   9.572  0.4268E+00  0.4981E+01
   9.582  0.4310E+00  0.4985E+01
   9.592  0.4351E+00  0.4990E+01
   9.602  0.4392E+00  0.4994E+01
   9.612  0.4433E+00  0.4998E+01
   9.622  0.4473E+00  0.5003E+01
   9.632  0.4513E+00  0.5007E+01
   9.642  0.4552E+00  0.5012E+01
   9.652  0.4591E+00  0.5017E+01
   9.662  0.4629E+00  0.5021E+01
   9.672  0.4666E+00  0.5026E+01
   9.682  0.4703E+00  0.5031E+01
   9.692  0.4738E+00  0.5035E+01
   9.702  0.4773E+00  0.5040E+01
   9.712  0.4806E+00  0.5045E+01
   9.722  0.4839E+00  0.5050E+01
   9.732  0.4871E+00  0.5055E+01
   9.742  0.4901E+00  0.5059E+01
   9.752  0.4931E+00  0.5064E+01
   9.762  0.4959E+00  0.5069E+01
   9.772  0.4986E+00  0.5074E+01
   9.782  0.5013E+00  0.5079E+01
   9.792  0.5038E+00  0.5084E+01
   9.802  0.5061E+00  0.5089E+01
   9.812  0.5084E+00  0.5095E+01
   9.822  0.5106E+00  0.5100E+01
   9.832  0.5126E+00  0.5105E+01
   9.842  0.5145E+00  0.5110E+01
   9.852  0.5163E+00  0.5115E+01
   9.862  0.5180E+00  0.5120E+01
   9.872  0.5196E+00  0.5125E+01
   9.882  0.5211E+00  0.5131E+01
   9.892  0.5225E+00  0.5136E+01
   9.902  0.5238E+00  0.5141E+01
   9.912  0.5250E+00  0.5146E+01
   9.922  0.5262E+00  0.5152E+01
   9.932  0.5272E+00  0.5157E+01
   9.942  0.5281E+00  0.5162E+01
   9.952  0.5290E+00  0.5167E+01
   9.962  0.5298E+00  0.5173E+01
   9.972  0.5306E+00  0.5178E+01
   9.982  0.5312E+00  0.5183E+01
   9.992  0.5319E+00  0.5189E+01
  10.002  0.5325E+00  0.5194E+01
  10.012  0.5330E+00  0.5199E+01
  10.022  0.5335E+00  0.5205E+01
  10.032  0.5340E+00  0.5210E+01
  10.042  0.5344E+00  0.5215E+01
  10.052  0.5349E+00  0.5221E+01
  10.062  0.5353E+00  0.5226E+01
  10.072  0.5357E+00  0.5231E+01
  10.082  0.5362E+00  0.5237E+01
  10.092  0.5366E+00  0.5242E+01
  10.102  0.5371E+00  0.5248E+01
  10.112  0.5375E+00  0.5253E+01
  10.122  0.5380E+00  0.5258E+01
  10.132  0.5386E+00  0.5264E+01
  10.142  0.5391E+00  0.5269E+01
  10.152  0.5398E+00  0.5274E+01
  10.162  0.5404E+00  0.5280E+01
  10.172  0.5411E+00  0.5285E+01
  10.182  0.5419E+00  0.5291E+01
  10.192  0.5427E+00  0.5296E+01
  10.202  0.5436E+00  0.5302E+01
  10.212  0.5445E+00  0.5307E+01
  10.222  0.5455E+00  0.5312E+01
  10.232  0.5466E+00  0.5318E+01
  10.242  0.5478E+00  0.5323E+01
  10.252  0.5490E+00  0.5329E+01
  10.262  0.5503E+00  0.5334E+01
  10.272  0.5517E+00  0.5340E+01
  10.282  0.5531E+00  0.5345E+01
  10.292  0.5546E+00  0.5351E+01
  10.302  0.5562E+00  0.5357E+01
  10.312  0.5579E+00  0.5362E+01
  10.322  0.5596E+00  0.5368E+01
  10.332  0.5614E+00  0.5373E+01
  10.342  0.5632E+00  0.5379E+01
  10.352  0.5651E+00  0.5385E+01
  10.362  0.5671E+00  0.5390E+01
  10.372  0.5691E+00  0.5396E+01
  10.382  0.5711E+00  0.5402E+01
  10.392  0.5732E+00  0.5407E+01
  10.402  0.5753E+00  0.5413E+01
  10.412  0.5774E+00  0.5419E+01
  10.422  0.5796E+00  0.5425E+01
  10.432  0.5818E+00  0.5431E+01
  10.442  0.5839E+00  0.5436E+01
  10.452  0.5861E+00  0.5442E+01
  10.462  0.5883E+00  0.5448E+01
  10.472  0.5904E+00  0.5454E+01
  10.482  0.5925E+00  0.5460E+01
  10.492  0.5946E+00  0.5466E+01
  10.502  0.5966E+00  0.5472E+01
  10.512  0.5986E+00  0.5478E+01
  10.522  0.6005E+00  0.5484E+01
  10.532  0.6023E+00  0.5490E+01
  10.542  0.6041E+00  0.5496E+01
  10.552  0.6057E+00  0.5502E+01
  10.562  0.6073E+00  0.5508E+01
  10.572  0.6087E+00  0.5514E+01
  10.582  0.6100E+00  0.5520E+01
  10.592  0.6112E+00  0.5526E+01
  10.602  0.6123E+00  0.5532E+01
  10.612  0.6132E+00  0.5539E+01
  10.622  0.6139E+00  0.5545E+01
  10.632  0.6145E+00  0.5551E+01
  10.642  0.6149E+00  0.5557E+01
  10.652  0.6151E+00  0.5563E+01
  10.662  0.6151E+00  0.5569E+01
  10.672  0.6149E+00  0.5576E+01
  10.682  0.6146E+00  0.5582E+01
  10.692  0.6140E+00  0.5588E+01
  10.702  0.6132E+00  0.5594E+01
  10.712  0.6122E+00  0.5600E+01
  10.722  0.6109E+00  0.5606E+01
  10.732  0.6094E+00  0.5612E+01
  10.742  0.6077E+00  0.5618E+01
  10.752  0.6058E+00  0.5624E+01
  10.762  0.6036E+00  0.5630E+01
  10.772  0.6011E+00  0.5636E+01
  10.782  0.5984E+00  0.5642E+01
  10.792  0.5955E+00  0.5648E+01
  10.802  0.5923E+00  0.5654E+01
  10.812  0.5889E+00  0.5660E+01
  10.822  0.5852E+00  0.5666E+01
  10.832  0.5813E+00  0.5672E+01
  10.842  0.5771E+00  0.5678E+01
  10.852  0.5727E+00  0.5683E+01
  10.862  0.5680E+00  0.5689E+01
  10.872  0.5631E+00  0.5695E+01
  10.882  0.5580E+00  0.5700E+01
  10.892  0.5527E+00  0.5706E+01
  10.902  0.5471E+00  0.5711E+01
  10.912  0.5413E+00  0.5717E+01
  10.922  0.5353E+00  0.5722E+01
  10.932  0.5291E+00  0.5727E+01
  10.942  0.5227E+00  0.5733E+01
  10.952  0.5161E+00  0.5738E+01
  10.962  0.5093E+00  0.5743E+01
  10.972  0.5024E+00  0.5748E+01
  10.982  0.4953E+00  0.5753E+01
  10.992  0.4880E+00  0.5758E+01
  11.002  0.4806E+00  0.5762E+01
  11.012  0.4731E+00  0.5767E+01
  11.022  0.4654E+00  0.5772E+01
  11.032  0.4576E+00  0.5776E+01
  11.042  0.4497E+00  0.5781E+01
  11.052  0.4417E+00  0.5785E+01
  11.062  0.4336E+00  0.5790E+01
  11.072  0.4255E+00  0.5794E+01
  11.082  0.4173E+00  0.5798E+01
  11.092  0.4090E+00  0.5802E+01
  11.102  0.4007E+00  0.5806E+01
  11.112  0.3924E+00  0.5810E+01
  11.122  0.3840E+00  0.5814E+01
  11.132  0.3757E+00  0.5818E+01
  11.142  0.3673E+00  0.5821E+01
  11.152  0.3590E+00  0.5825E+01
  11.162  0.3506E+00  0.5828E+01
  11.172  0.3423E+00  0.5832E+01
  11.182  0.3341E+00  0.5835E+01
  11.192  0.3259E+00  0.5838E+01
  11.202  0.3178E+00  0.5842E+01
  11.212  0.3098E+00  0.5845E+01
  11.222  0.3018E+00  0.5848E+01
  11.232  0.2940E+00  0.5851E+01
  11.242  0.2862E+00  0.5854E+01
  11.252  0.2786E+00  0.5856E+01
  11.262  0.2711E+00  0.5859E+01
  11.272  0.2637E+00  0.5862E+01
  11.282  0.2564E+00  0.5864E+01
  11.292  0.2493E+00  0.5867E+01
  11.302  0.2424E+00  0.5869E+01
  11.312  0.2356E+00  0.5872E+01
  11.322  0.2290E+00  0.5874E+01
  11.332  0.2226E+00  0.5876E+01
  11.342  0.2163E+00  0.5878E+01
  11.352  0.2102E+00  0.5880E+01
  11.362  0.2044E+00  0.5882E+01
  11.372  0.1987E+00  0.5884E+01
  11.382  0.1932E+00  0.5886E+01
  11.392  0.1879E+00  0.5888E+01
  11.402  0.1828E+00  0.5890E+01
  11.412  0.1780E+00  0.5892E+01
  11.422  0.1734E+00  0.5894E+01
  11.432  0.1689E+00  0.5895E+01
  11.442  0.1647E+00  0.5897E+01
  11.452  0.1608E+00  0.5898E+01
  11.462  0.1570E+00  0.5900E+01
  11.472  0.1535E+00  0.5902E+01
  11.482  0.1502E+00  0.5903E+01
  11.492  0.1472E+00  0.5905E+01
  11.502  0.1443E+00  0.5906E+01
  11.512  0.1418E+00  0.5907E+01
  11.522  0.1394E+00  0.5909E+01
  11.532  0.1373E+00  0.5910E+01
  11.542  0.1354E+00  0.5912E+01
  11.552  0.1337E+00  0.5913E+01
  11.562  0.1323E+00  0.5914E+01
  11.572  0.1311E+00  0.5915E+01
  11.582  0.1301E+00  0.5917E+01
  11.592  0.1294E+00  0.5918E+01
  11.602  0.1289E+00  0.5919E+01
  11.612  0.1286E+00  0.5921E+01
  11.622  0.1286E+00  0.5922E+01
  11.632  0.1287E+00  0.5923E+01
  11.642  0.1291E+00  0.5925E+01
  11.652  0.1297E+00  0.5926E+01
  11.662  0.1305E+00  0.5927E+01
  11.672  0.1315E+00  0.5928E+01
  11.682  0.1328E+00  0.5930E+01
  11.692  0.1342E+00  0.5931E+01
  11.702  0.1359E+00  0.5932E+01
  11.712  0.1377E+00  0.5934E+01
  11.722  0.1398E+00  0.5935E+01
  11.732  0.1420E+00  0.5937E+01
  11.742  0.1444E+00  0.5938E+01
  11.752  0.1470E+00  0.5940E+01
  11.762  0.1498E+00  0.5941E+01
  11.772  0.1528E+00  0.5943E+01
  11.782  0.1560E+00  0.5944E+01
  11.792  0.1593E+00  0.5946E+01
  11.802  0.1628E+00  0.5947E+01
  11.812  0.1665E+00  0.5949E+01
  11.822  0.1703E+00  0.5951E+01
  11.832  0.1743E+00  0.5952E+01
  11.842  0.1785E+00  0.5954E+01
  11.852  0.1828E+00  0.5956E+01
  11.862  0.1872E+00  0.5958E+01
  11.872  0.1918E+00  0.5960E+01
  11.882  0.1965E+00  0.5962E+01
  11.892  0.2014E+00  0.5964E+01
  11.902  0.2064E+00  0.5966E+01
  11.912  0.2115E+00  0.5968E+01
  11.922  0.2168E+00  0.5970E+01
  11.932  0.2222E+00  0.5972E+01
  11.942  0.2277E+00  0.5975E+01
  11.952  0.2333E+00  0.5977E+01
  11.962  0.2391E+00  0.5979E+01
  11.972  0.2449E+00  0.5982E+01
  11.982  0.2509E+00  0.5984E+01
  11.992  0.2569E+00  0.5987E+01
  12.002  0.2631E+00  0.5990E+01
  12.012  0.2694E+00  0.5992E+01
  12.022  0.2757E+00  0.5995E+01
  12.032  0.2822E+00  0.5998E+01
  12.042  0.2887E+00  0.6001E+01
  12.052  0.2954E+00  0.6004E+01
  12.062  0.3021E+00  0.6007E+01
  12.072  0.3089E+00  0.6010E+01
  12.082  0.3158E+00  0.6013E+01
  12.092  0.3228E+00  0.6016E+01
  12.102  0.3299E+00  0.6020E+01
  12.112  0.3371E+00  0.6023E+01
  12.122  0.3443E+00  0.6026E+01
  12.132  0.3516E+00  0.6030E+01
  12.142  0.3590E+00  0.6033E+01
  12.152  0.3664E+00  0.6037E+01
  12.162  0.3740E+00  0.6041E+01
  12.172  0.3816E+00  0.6045E+01
  12.182  0.3893E+00  0.6049E+01
  12.192  0.3970E+00  0.6053E+01
  12.202  0.4048E+00  0.6057E+01
  12.212  0.4127E+00  0.6061E+01
  12.222  0.4207E+00  0.6065E+01
  12.232  0.4288E+00  0.6069E+01
  12.242  0.4369E+00  0.6074E+01
  12.252  0.4450E+00  0.6078E+01
  12.262  0.4533E+00  0.6083E+01
  12.272  0.4616E+00  0.6087E+01
  12.282  0.4700E+00  0.6092E+01
  12.292  0.4785E+00  0.6097E+01
  12.302  0.4870E+00  0.6102E+01
  12.312  0.4956E+00  0.6106E+01
  12.322  0.5042E+00  0.6112E+01
  12.332  0.5130E+00  0.6117E+01
  12.342  0.5217E+00  0.6122E+01
  12.352  0.5306E+00  0.6127E+01
  12.362  0.5395E+00  0.6133E+01
  12.372  0.5485E+00  0.6138E+01
  12.382  0.5575E+00  0.6144E+01
  12.392  0.5666E+00  0.6149E+01
  12.402  0.5757E+00  0.6155E+01
  12.412  0.5849E+00  0.6161E+01
  12.422  0.5942E+00  0.6167E+01
  12.432  0.6034E+00  0.6173E+01
  12.442  0.6128E+00  0.6179E+01
  12.452  0.6221E+00  0.6185E+01
  12.462  0.6315E+00  0.6192E+01
  12.472  0.6410E+00  0.6198E+01
  12.482  0.6504E+00  0.6204E+01
  12.492  0.6599E+00  0.6211E+01
  12.502  0.6694E+00  0.6218E+01
  12.512  0.6790E+00  0.6225E+01
  12.522  0.6885E+00  0.6231E+01
  12.532  0.6980E+00  0.6238E+01
  12.542  0.7075E+00  0.6245E+01
  12.552  0.7170E+00  0.6253E+01
  12.562  0.7265E+00  0.6260E+01
  12.572  0.7360E+00  0.6267E+01
  12.582  0.7454E+00  0.6275E+01
  12.592  0.7548E+00  0.6282E+01
  12.602  0.7641E+00  0.6290E+01
  12.612  0.7734E+00  0.6298E+01
  12.622  0.7826E+00  0.6305E+01
  12.632  0.7917E+00  0.6313E+01
  12.642  0.8008E+00  0.6321E+01
  12.652  0.8097E+00  0.6329E+01
  12.662  0.8185E+00  0.6338E+01
  12.672  0.8273E+00  0.6346E+01
  12.682  0.8359E+00  0.6354E+01
  12.692  0.8443E+00  0.6363E+01
  12.702  0.8526E+00  0.6371E+01
  12.712  0.8608E+00  0.6380E+01
  12.722  0.8688E+00  0.6389E+01
  12.732  0.8766E+00  0.6397E+01
  12.742  0.8842E+00  0.6406E+01
  12.752  0.8916E+00  0.6415E+01
  12.762  0.8989E+00  0.6424E+01
  12.772  0.9058E+00  0.6433E+01
  12.782  0.9126E+00  0.6442E+01
  12.792  0.9191E+00  0.6451E+01
  12.802  0.9254E+00  0.6461E+01
  12.812  0.9315E+00  0.6470E+01
  12.822  0.9372E+00  0.6479E+01
  12.832  0.9427E+00  0.6489E+01
  12.842  0.9479E+00  0.6498E+01
  12.852  0.9528E+00  0.6508E+01
  12.862  0.9574E+00  0.6517E+01
  12.872  0.9617E+00  0.6527E+01
  12.882  0.9657E+00  0.6537E+01
  12.892  0.9693E+00  0.6546E+01
  12.902  0.9726E+00  0.6556E+01
  12.912  0.9756E+00  0.6566E+01
  12.922  0.9783E+00  0.6576E+01
  12.932  0.9806E+00  0.6585E+01
  12.942  0.9826E+00  0.6595E+01
  12.952  0.9842E+00  0.6605E+01
  12.962  0.9855E+00  0.6615E+01
  12.972  0.9864E+00  0.6625E+01
  12.982  0.9869E+00  0.6635E+01
  12.992  0.9871E+00  0.6645E+01
  13.002  0.9870E+00  0.6654E+01
  13.012  0.9864E+00  0.6664E+01
  13.022  0.9856E+00  0.6674E+01
  13.032  0.9844E+00  0.6684E+01
  13.042  0.9828E+00  0.6694E+01
  13.052  0.9809E+00  0.6704E+01
  13.062  0.9786E+00  0.6713E+01
  13.072  0.9760E+00  0.6723E+01
  13.082  0.9731E+00  0.6733E+01
  13.092  0.9699E+00  0.6743E+01
  13.102  0.9663E+00  0.6752E+01
  13.112  0.9624E+00  0.6762E+01
  13.122  0.9583E+00  0.6771E+01
  13.132  0.9538E+00  0.6781E+01
  13.142  0.9490E+00  0.6791E+01
  13.152  0.9440E+00  0.6800E+01
  13.162  0.9387E+00  0.6809E+01
  13.172  0.9332E+00  0.6819E+01
  13.182  0.9274E+00  0.6828E+01
  13.192  0.9214E+00  0.6837E+01
  13.202  0.9151E+00  0.6846E+01
  13.212  0.9087E+00  0.6855E+01
  13.222  0.9021E+00  0.6864E+01
  13.232  0.8953E+00  0.6873E+01
  13.242  0.8883E+00  0.6882E+01
  13.252  0.8812E+00  0.6891E+01
  13.262  0.8739E+00  0.6900E+01
  13.272  0.8665E+00  0.6908E+01
  13.282  0.8590E+00  0.6917E+01
  13.292  0.8515E+00  0.6926E+01
  13.302  0.8438E+00  0.6934E+01
  13.312  0.8361E+00  0.6942E+01
  13.322  0.8283E+00  0.6951E+01
  13.332  0.8205E+00  0.6959E+01
  13.342  0.8127E+00  0.6967E+01
  13.352  0.8049E+00  0.6975E+01
  13.362  0.7971E+00  0.6983E+01
  13.372  0.7893E+00  0.6991E+01
  13.382  0.7816E+00  0.6999E+01
  13.392  0.7739E+00  0.7006E+01
  13.402  0.7663E+00  0.7014E+01
  13.412  0.7588E+00  0.7022E+01
  13.422  0.7514E+00  0.7029E+01
  13.432  0.7441E+00  0.7037E+01
  13.442  0.7369E+00  0.7044E+01
  13.452  0.7298E+00  0.7051E+01
  13.462  0.7229E+00  0.7059E+01
  13.472  0.7162E+00  0.7066E+01
  13.482  0.7096E+00  0.7073E+01
  13.492  0.7032E+00  0.7080E+01
  13.502  0.6970E+00  0.7087E+01
  13.512  0.6909E+00  0.7094E+01
  13.522  0.6851E+00  0.7101E+01
  13.532  0.6795E+00  0.7107E+01
  13.542  0.6741E+00  0.7114E+01
  13.552  0.6690E+00  0.7121E+01
  13.562  0.6641E+00  0.7127E+01
  13.572  0.6594E+00  0.7134E+01
  13.582  0.6550E+00  0.7141E+01
  13.592  0.6508E+00  0.7147E+01
  13.602  0.6468E+00  0.7154E+01
  13.612  0.6431E+00  0.7160E+01
  13.622  0.6397E+00  0.7166E+01
  13.632  0.6365E+00  0.7173E+01
  13.642  0.6336E+00  0.7179E+01
  13.652  0.6309E+00  0.7185E+01
  13.662  0.6285E+00  0.7192E+01
  13.672  0.6263E+00  0.7198E+01
  13.682  0.6243E+00  0.7204E+01
  13.692  0.6227E+00  0.7210E+01
  13.702  0.6212E+00  0.7217E+01
  13.712  0.6200E+00  0.7223E+01
  13.722  0.6190E+00  0.7229E+01
  13.732  0.6183E+00  0.7235E+01
  13.742  0.6177E+00  0.7241E+01
  13.752  0.6174E+00  0.7248E+01
  13.762  0.6173E+00  0.7254E+01
  13.772  0.6173E+00  0.7260E+01
  13.782  0.6176E+00  0.7266E+01
  13.792  0.6180E+00  0.7272E+01
  13.802  0.6186E+00  0.7278E+01
  13.812  0.6194E+00  0.7285E+01
  13.822  0.6203E+00  0.7291E+01
  13.832  0.6213E+00  0.7297E+01
  13.842  0.6225E+00  0.7303E+01
  13.852  0.6238E+00  0.7310E+01
  13.862  0.6251E+00  0.7316E+01
  13.872  0.6266E+00  0.7322E+01
  13.882  0.6282E+00  0.7328E+01
  13.892  0.6298E+00  0.7335E+01
  13.902  0.6315E+00  0.7341E+01
  13.912  0.6332E+00  0.7347E+01
  13.922  0.6350E+00  0.7354E+01
  13.932  0.6368E+00  0.7360E+01
  13.942  0.6385E+00  0.7366E+01
  13.952  0.6403E+00  0.7373E+01
  13.962  0.6421E+00  0.7379E+01
  13.972  0.6439E+00  0.7386E+01
  13.982  0.6456E+00  0.7392E+01
  13.992  0.6472E+00  0.7399E+01
  14.002  0.6488E+00  0.7405E+01
  14.012  0.6504E+00  0.7412E+01
  14.022  0.6518E+00  0.7418E+01
  14.032  0.6532E+00  0.7425E+01
  14.042  0.6545E+00  0.7431E+01
  14.052  0.6556E+00  0.7438E+01
  14.062  0.6567E+00  0.7444E+01
  14.072  0.6576E+00  0.7451E+01
  14.082  0.6584E+00  0.7457E+01
  14.092  0.6591E+00  0.7464E+01
  14.102  0.6596E+00  0.7471E+01
  14.112  0.6600E+00  0.7477E+01
  14.122  0.6602E+00  0.7484E+01
  14.132  0.6603E+00  0.7490E+01
  14.142  0.6602E+00  0.7497E+01
  14.152  0.6600E+00  0.7504E+01
  14.162  0.6595E+00  0.7510E+01
  14.172  0.6589E+00  0.7517E+01
  14.182  0.6582E+00  0.7523E+01
  14.192  0.6572E+00  0.7530E+01
  14.202  0.6561E+00  0.7537E+01
  14.212  0.6548E+00  0.7543E+01
  14.222  0.6534E+00  0.7550E+01
  14.232  0.6518E+00  0.7556E+01
  14.242  0.6500E+00  0.7563E+01
  14.252  0.6480E+00  0.7569E+01
  14.262  0.6459E+00  0.7576E+01
  14.272  0.6436E+00  0.7582E+01
  14.282  0.6412E+00  0.7588E+01
  14.292  0.6386E+00  0.7595E+01
  14.302  0.6358E+00  0.7601E+01
  14.312  0.6329E+00  0.7607E+01
  14.322  0.6299E+00  0.7614E+01
  14.332  0.6268E+00  0.7620E+01
  14.342  0.6235E+00  0.7626E+01
  14.352  0.6201E+00  0.7632E+01
  14.362  0.6166E+00  0.7639E+01
  14.372  0.6130E+00  0.7645E+01
  14.382  0.6093E+00  0.7651E+01
  14.392  0.6055E+00  0.7657E+01
  14.402  0.6016E+00  0.7663E+01
  14.412  0.5976E+00  0.7669E+01
  14.422  0.5936E+00  0.7675E+01
  14.432  0.5895E+00  0.7681E+01
  14.442  0.5854E+00  0.7687E+01
  14.452  0.5812E+00  0.7692E+01
  14.462  0.5770E+00  0.7698E+01
  14.472  0.5727E+00  0.7704E+01
  14.482  0.5685E+00  0.7710E+01
  14.492  0.5642E+00  0.7715E+01
  14.502  0.5599E+00  0.7721E+01
  14.512  0.5557E+00  0.7726E+01
  14.522  0.5514E+00  0.7732E+01
  14.532  0.5472E+00  0.7737E+01
  14.542  0.5430E+00  0.7743E+01
  14.552  0.5388E+00  0.7748E+01
  14.562  0.5347E+00  0.7754E+01
  14.572  0.5306E+00  0.7759E+01
  14.582  0.5265E+00  0.7764E+01
  14.592  0.5225E+00  0.7769E+01
  14.602  0.5186E+00  0.7775E+01
  14.612  0.5147E+00  0.7780E+01
  14.622  0.5109E+00  0.7785E+01
  14.632  0.5072E+00  0.7790E+01
  14.642  0.5036E+00  0.7795E+01
  14.652  0.5001E+00  0.7800E+01
  14.662  0.4966E+00  0.7805E+01
  14.672  0.4932E+00  0.7810E+01
  14.682  0.4899E+00  0.7815E+01
  14.692  0.4868E+00  0.7820E+01
  14.702  0.4837E+00  0.7824E+01
  14.712  0.4807E+00  0.7829E+01
  14.722  0.4778E+00  0.7834E+01
  14.732  0.4750E+00  0.7839E+01
  14.742  0.4723E+00  0.7843E+01
  14.752  0.4697E+00  0.7848E+01
  14.762  0.4672E+00  0.7853E+01
  14.772  0.4648E+00  0.7857E+01
  14.782  0.4625E+00  0.7862E+01
  14.792  0.4602E+00  0.7867E+01
  14.802  0.4581E+00  0.7871E+01
  14.812  0.4561E+00  0.7876E+01
  14.822  0.4541E+00  0.7880E+01
  14.832  0.4523E+00  0.7885E+01
  14.842  0.4505E+00  0.7889E+01
  14.852  0.4488E+00  0.7894E+01
  14.862  0.4472E+00  0.7898E+01
  14.872  0.4456E+00  0.7903E+01
  14.882  0.4442E+00  0.7907E+01
  14.892  0.4428E+00  0.7912E+01
  14.902  0.4414E+00  0.7916E+01
  14.912  0.4401E+00  0.7921E+01
  14.922  0.4389E+00  0.7925E+01
  14.932  0.4377E+00  0.7929E+01
  14.942  0.4366E+00  0.7934E+01
  14.952  0.4355E+00  0.7938E+01
  14.962  0.4344E+00  0.7942E+01
  14.972  0.4334E+00  0.7947E+01
  14.982  0.4324E+00  0.7951E+01
  14.992  0.4314E+00  0.7955E+01
  15.002  0.4304E+00  0.7960E+01
  15.012  0.4295E+00  0.7964E+01
  15.022  0.4286E+00  0.7968E+01
  15.032  0.4277E+00  0.7972E+01
  15.042  0.4267E+00  0.7977E+01
  15.052  0.4258E+00  0.7981E+01
  15.062  0.4249E+00  0.7985E+01
  15.072  0.4240E+00  0.7989E+01
  15.082  0.4231E+00  0.7994E+01
  15.092  0.4222E+00  0.7998E+01
  15.102  0.4212E+00  0.8002E+01
  15.112  0.4202E+00  0.8006E+01
  15.122  0.4193E+00  0.8011E+01
  15.132  0.4183E+00  0.8015E+01
  15.142  0.4173E+00  0.8019E+01
  15.152  0.4162E+00  0.8023E+01
  15.162  0.4152E+00  0.8027E+01
  15.172  0.4141E+00  0.8031E+01
  15.182  0.4130E+00  0.8035E+01
  15.192  0.4118E+00  0.8040E+01
  15.202  0.4107E+00  0.8044E+01
  15.212  0.4095E+00  0.8048E+01
  15.222  0.4083E+00  0.8052E+01
  15.232  0.4071E+00  0.8056E+01
  15.242  0.4058E+00  0.8060E+01
  15.252  0.4046E+00  0.8064E+01
  15.262  0.4033E+00  0.8068E+01
  15.272  0.4020E+00  0.8072E+01
  15.282  0.4007E+00  0.8076E+01
  15.292  0.3994E+00  0.8080E+01
  15.302  0.3980E+00  0.8084E+01
  15.312  0.3967E+00  0.8088E+01
  15.322  0.3954E+00  0.8092E+01
  15.332  0.3941E+00  0.8096E+01
  15.342  0.3928E+00  0.8100E+01
  15.352  0.3915E+00  0.8104E+01
  15.362  0.3902E+00  0.8108E+01
  15.372  0.3889E+00  0.8112E+01
  15.382  0.3877E+00  0.8115E+01
  15.392  0.3865E+00  0.8119E+01
  15.402  0.3853E+00  0.8123E+01
  15.412  0.3842E+00  0.8127E+01
  15.422  0.3831E+00  0.8131E+01
  15.432  0.3821E+00  0.8135E+01
  15.442  0.3811E+00  0.8138E+01
  15.452  0.3802E+00  0.8142E+01
  15.462  0.3794E+00  0.8146E+01
  15.472  0.3786E+00  0.8150E+01
  15.482  0.3779E+00  0.8154E+01
  15.492  0.3773E+00  0.8157E+01
  15.502  0.3768E+00  0.8161E+01
  15.512  0.3763E+00  0.8165E+01
  15.522  0.3760E+00  0.8169E+01
  15.532  0.3758E+00  0.8172E+01
  15.542  0.3757E+00  0.8176E+01
  15.552  0.3757E+00  0.8180E+01
  15.562  0.3758E+00  0.8184E+01
  15.572  0.3761E+00  0.8188E+01
  15.582  0.3765E+00  0.8191E+01
  15.592  0.3770E+00  0.8195E+01
  15.602  0.3776E+00  0.8199E+01
  15.612  0.3784E+00  0.8203E+01
  15.622  0.3793E+00  0.8206E+01
  15.632  0.3804E+00  0.8210E+01
  15.642  0.3817E+00  0.8214E+01
  15.652  0.3830E+00  0.8218E+01
  15.662  0.3846E+00  0.8222E+01
  15.672  0.3862E+00  0.8226E+01
  15.682  0.3881E+00  0.8229E+01
  15.692  0.3901E+00  0.8233E+01
  15.702  0.3922E+00  0.8237E+01
  15.712  0.3946E+00  0.8241E+01
  15.722  0.3970E+00  0.8245E+01
  15.732  0.3997E+00  0.8249E+01
  15.742  0.4024E+00  0.8253E+01
  15.752  0.4054E+00  0.8257E+01
  15.762  0.4085E+00  0.8261E+01
  15.772  0.4117E+00  0.8265E+01
  15.782  0.4151E+00  0.8270E+01
  15.792  0.4186E+00  0.8274E+01
  15.802  0.4223E+00  0.8278E+01
  15.812  0.4261E+00  0.8282E+01
  15.822  0.4300E+00  0.8287E+01
  15.832  0.4341E+00  0.8291E+01
  15.842  0.4383E+00  0.8295E+01
  15.852  0.4426E+00  0.8300E+01
  15.862  0.4470E+00  0.8304E+01
  15.872  0.4515E+00  0.8309E+01
  15.882  0.4561E+00  0.8313E+01
  15.892  0.4608E+00  0.8318E+01
  15.902  0.4655E+00  0.8323E+01
  15.912  0.4704E+00  0.8327E+01
  15.922  0.4753E+00  0.8332E+01
  15.932  0.4802E+00  0.8337E+01
  15.942  0.4852E+00  0.8342E+01
  15.952  0.4902E+00  0.8347E+01
  15.962  0.4953E+00  0.8352E+01
  15.972  0.5004E+00  0.8357E+01
  15.982  0.5054E+00  0.8362E+01
  15.992  0.5105E+00  0.8367E+01
  16.002  0.5156E+00  0.8372E+01
  16.012  0.5206E+00  0.8377E+01
  16.022  0.5256E+00  0.8382E+01
  16.032  0.5306E+00  0.8388E+01
  16.042  0.5354E+00  0.8393E+01
  16.052  0.5403E+00  0.8398E+01
  16.062  0.5450E+00  0.8404E+01
  16.072  0.5497E+00  0.8409E+01
  16.082  0.5542E+00  0.8415E+01
  16.092  0.5587E+00  0.8420E+01
  16.102  0.5630E+00  0.8426E+01
  16.112  0.5672E+00  0.8432E+01
  16.122  0.5713E+00  0.8437E+01
  16.132  0.5752E+00  0.8443E+01
  16.142  0.5790E+00  0.8449E+01
  16.152  0.5826E+00  0.8455E+01
  16.162  0.5860E+00  0.8461E+01
  16.172  0.5892E+00  0.8467E+01
  16.182  0.5923E+00  0.8472E+01
  16.192  0.5951E+00  0.8478E+01
  16.202  0.5978E+00  0.8484E+01
  16.212  0.6002E+00  0.8490E+01
  16.222  0.6024E+00  0.8496E+01
  16.232  0.6044E+00  0.8502E+01
  16.242  0.6061E+00  0.8509E+01
  16.252  0.6077E+00  0.8515E+01
  16.262  0.6089E+00  0.8521E+01
  16.272  0.6100E+00  0.8527E+01
  16.282  0.6107E+00  0.8533E+01
  16.292  0.6113E+00  0.8539E+01
  16.302  0.6115E+00  0.8545E+01
  16.312  0.6116E+00  0.8551E+01
  16.322  0.6113E+00  0.8557E+01
  16.332  0.6109E+00  0.8563E+01
  16.342  0.6101E+00  0.8570E+01
  16.352  0.6091E+00  0.8576E+01
  16.362  0.6078E+00  0.8582E+01
  16.372  0.6063E+00  0.8588E+01
  16.382  0.6046E+00  0.8594E+01
  16.392  0.6026E+00  0.8600E+01
  16.402  0.6003E+00  0.8606E+01
  16.412  0.5978E+00  0.8612E+01
  16.422  0.5950E+00  0.8618E+01
  16.432  0.5921E+00  0.8624E+01
  16.442  0.5889E+00  0.8630E+01
  16.452  0.5854E+00  0.8635E+01
  16.462  0.5818E+00  0.8641E+01
  16.472  0.5779E+00  0.8647E+01
  16.482  0.5738E+00  0.8653E+01
  16.492  0.5696E+00  0.8659E+01
  16.502  0.5651E+00  0.8664E+01
  16.512  0.5604E+00  0.8670E+01
  16.522  0.5556E+00  0.8675E+01
  16.532  0.5506E+00  0.8681E+01
  16.542  0.5454E+00  0.8686E+01
  16.552  0.5401E+00  0.8692E+01
  16.562  0.5346E+00  0.8697E+01
  16.572  0.5290E+00  0.8702E+01
  16.582  0.5233E+00  0.8708E+01
  16.592  0.5175E+00  0.8713E+01
  16.602  0.5115E+00  0.8718E+01
  16.612  0.5054E+00  0.8723E+01
  16.622  0.4993E+00  0.8728E+01
  16.632  0.4930E+00  0.8733E+01
  16.642  0.4867E+00  0.8738E+01
  16.652  0.4803E+00  0.8742E+01
  16.662  0.4739E+00  0.8747E+01
  16.672  0.4674E+00  0.8752E+01
  16.682  0.4609E+00  0.8757E+01
  16.692  0.4543E+00  0.8761E+01
  16.702  0.4477E+00  0.8766E+01
  16.712  0.4411E+00  0.8770E+01
  16.722  0.4345E+00  0.8774E+01
  16.732  0.4279E+00  0.8779E+01
  16.742  0.4213E+00  0.8783E+01
  16.752  0.4147E+00  0.8787E+01
  16.762  0.4082E+00  0.8791E+01
  16.772  0.4016E+00  0.8795E+01
  16.782  0.3951E+00  0.8799E+01
  16.792  0.3887E+00  0.8803E+01
  16.802  0.3823E+00  0.8807E+01
  16.812  0.3759E+00  0.8810E+01
  16.822  0.3697E+00  0.8814E+01
  16.832  0.3634E+00  0.8818E+01
  16.842  0.3573E+00  0.8821E+01
  16.852  0.3512E+00  0.8825E+01
  16.862  0.3452E+00  0.8828E+01
  16.872  0.3393E+00  0.8832E+01
  16.882  0.3335E+00  0.8835E+01
  16.892  0.3278E+00  0.8838E+01
  16.902  0.3222E+00  0.8842E+01
  16.912  0.3167E+00  0.8845E+01
  16.922  0.3113E+00  0.8848E+01
  16.932  0.3060E+00  0.8851E+01
  16.942  0.3008E+00  0.8854E+01
  16.952  0.2957E+00  0.8857E+01
  16.962  0.2908E+00  0.8860E+01
  16.972  0.2859E+00  0.8863E+01
  16.982  0.2812E+00  0.8865E+01
  16.992  0.2766E+00  0.8868E+01
  17.002  0.2721E+00  0.8871E+01
  17.012  0.2678E+00  0.8874E+01
  17.022  0.2635E+00  0.8876E+01
  17.032  0.2594E+00  0.8879E+01
  17.042  0.2554E+00  0.8881E+01
  17.052  0.2515E+00  0.8884E+01
  17.062  0.2478E+00  0.8886E+01
  17.072  0.2442E+00  0.8889E+01
  17.082  0.2407E+00  0.8891E+01
  17.092  0.2373E+00  0.8894E+01
  17.102  0.2341E+00  0.8896E+01
  17.112  0.2309E+00  0.8898E+01
  17.122  0.2279E+00  0.8901E+01
  17.132  0.2251E+00  0.8903E+01
  17.142  0.2223E+00  0.8905E+01
  17.152  0.2196E+00  0.8907E+01
  17.162  0.2171E+00  0.8909E+01
  17.172  0.2147E+00  0.8912E+01
  17.182  0.2124E+00  0.8914E+01
  17.192  0.2102E+00  0.8916E+01
  17.202  0.2081E+00  0.8918E+01
  17.212  0.2062E+00  0.8920E+01
  17.222  0.2043E+00  0.8922E+01
  17.232  0.2026E+00  0.8924E+01
  17.242  0.2009E+00  0.8926E+01
  17.252  0.1994E+00  0.8928E+01
  17.262  0.1979E+00  0.8930E+01
  17.272  0.1965E+00  0.8932E+01
  17.282  0.1953E+00  0.8934E+01
  17.292  0.1941E+00  0.8936E+01
  17.302  0.1930E+00  0.8938E+01
  17.312  0.1920E+00  0.8940E+01
  17.322  0.1911E+00  0.8942E+01
  17.332  0.1903E+00  0.8943E+01
  17.342  0.1895E+00  0.8945E+01
  17.352  0.1888E+00  0.8947E+01
  17.362  0.1882E+00  0.8949E+01
  17.372  0.1877E+00  0.8951E+01
  17.382  0.1872E+00  0.8953E+01
  17.392  0.1868E+00  0.8955E+01
  17.402  0.1865E+00  0.8957E+01
  17.412  0.1862E+00  0.8958E+01
  17.422  0.1860E+00  0.8960E+01
  17.432  0.1858E+00  0.8962E+01
  17.442  0.1857E+00  0.8964E+01
  17.452  0.1856E+00  0.8966E+01
  17.462  0.1856E+00  0.8968E+01
  17.472  0.1856E+00  0.8970E+01
  17.482  0.1857E+00  0.8971E+01
  17.492  0.1858E+00  0.8973E+01
  17.502  0.1859E+00  0.8975E+01
  17.512  0.1861E+00  0.8977E+01
  17.522  0.1863E+00  0.8979E+01
  17.532  0.1865E+00  0.8981E+01
  17.542  0.1868E+00  0.8983E+01
  17.552  0.1871E+00  0.8985E+01
  17.562  0.1874E+00  0.8986E+01
  17.572  0.1877E+00  0.8988E+01
  17.582  0.1881E+00  0.8990E+01
  17.592  0.1884E+00  0.8992E+01
  17.602  0.1888E+00  0.8994E+01
  17.612  0.1892E+00  0.8996E+01
  17.622  0.1896E+00  0.8998E+01
  17.632  0.1900E+00  0.9000E+01
  17.642  0.1904E+00  0.9002E+01
  17.652  0.1908E+00  0.9003E+01
  17.662  0.1912E+00  0.9005E+01
  17.672  0.1916E+00  0.9007E+01
  17.682  0.1920E+00  0.9009E+01
  17.692  0.1924E+00  0.9011E+01
  17.702  0.1928E+00  0.9013E+01
  17.712  0.1931E+00  0.9015E+01
  17.722  0.1935E+00  0.9017E+01
  17.732  0.1939E+00  0.9019E+01
  17.742  0.1942E+00  0.9021E+01
  17.752  0.1946E+00  0.9023E+01
  17.762  0.1949E+00  0.9025E+01
  17.772  0.1952E+00  0.9027E+01
  17.782  0.1955E+00  0.9029E+01
  17.792  0.1958E+00  0.9031E+01
  17.802  0.1960E+00  0.9032E+01
  17.812  0.1963E+00  0.9034E+01
  17.822  0.1965E+00  0.9036E+01
  17.832  0.1967E+00  0.9038E+01
  17.842  0.1968E+00  0.9040E+01
  17.852  0.1970E+00  0.9042E+01
  17.862  0.1971E+00  0.9044E+01
  17.872  0.1972E+00  0.9046E+01
  17.882  0.1972E+00  0.9048E+01
  17.892  0.1973E+00  0.9050E+01
  17.902  0.1973E+00  0.9052E+01
  17.912  0.1972E+00  0.9054E+01
  17.922  0.1972E+00  0.9056E+01
  17.932  0.1971E+00  0.9058E+01
  17.942  0.1970E+00  0.9060E+01
  17.952  0.1968E+00  0.9062E+01
  17.962  0.1966E+00  0.9064E+01
  17.972  0.1964E+00  0.9066E+01
  17.982  0.1961E+00  0.9068E+01
  17.992  0.1958E+00  0.9070E+01
  18.002  0.1955E+00  0.9072E+01
  18.012  0.1951E+00  0.9074E+01
  18.022  0.1947E+00  0.9076E+01
  18.032  0.1943E+00  0.9078E+01
  18.042  0.1938E+00  0.9080E+01
  18.052  0.1933E+00  0.9082E+01
  18.062  0.1928E+00  0.9083E+01
  18.072  0.1922E+00  0.9085E+01
  18.082  0.1916E+00  0.9087E+01
  18.092  0.1909E+00  0.9089E+01
  18.102  0.1902E+00  0.9091E+01
  18.112  0.1895E+00  0.9093E+01
  18.122  0.1887E+00  0.9095E+01
  18.132  0.1879E+00  0.9097E+01
  18.142  0.1871E+00  0.9099E+01
  18.152  0.1862E+00  0.9101E+01
  18.162  0.1853E+00  0.9102E+01
  18.172  0.1843E+00  0.9104E+01
  18.182  0.1834E+00  0.9106E+01
  18.192  0.1823E+00  0.9108E+01
  18.202  0.1813E+00  0.9110E+01
  18.212  0.1802E+00  0.9111E+01
  18.222  0.1791E+00  0.9113E+01
  18.232  0.1780E+00  0.9115E+01
  18.242  0.1769E+00  0.9117E+01
  18.252  0.1757E+00  0.9119E+01
  18.262  0.1745E+00  0.9120E+01
  18.272  0.1733E+00  0.9122E+01
  18.282  0.1720E+00  0.9124E+01
  18.292  0.1708E+00  0.9125E+01
  18.302  0.1695E+00  0.9127E+01
  18.312  0.1682E+00  0.9129E+01
  18.322  0.1669E+00  0.9131E+01
  18.332  0.1656E+00  0.9132E+01
  18.342  0.1643E+00  0.9134E+01
  18.352  0.1630E+00  0.9135E+01
  18.362  0.1617E+00  0.9137E+01
  18.372  0.1604E+00  0.9139E+01
  18.382  0.1591E+00  0.9140E+01
  18.392  0.1578E+00  0.9142E+01
  18.402  0.1565E+00  0.9143E+01
  18.412  0.1552E+00  0.9145E+01
  18.422  0.1540E+00  0.9147E+01
  18.432  0.1527E+00  0.9148E+01
  18.442  0.1515E+00  0.9150E+01
  18.452  0.1503E+00  0.9151E+01
  18.462  0.1492E+00  0.9153E+01
  18.472  0.1481E+00  0.9154E+01
  18.482  0.1470E+00  0.9155E+01
  18.492  0.1460E+00  0.9157E+01
  18.502  0.1450E+00  0.9158E+01
  18.512  0.1440E+00  0.9160E+01
  18.522  0.1432E+00  0.9161E+01
  18.532  0.1424E+00  0.9163E+01
  18.542  0.1416E+00  0.9164E+01
  18.552  0.1409E+00  0.9166E+01
  18.562  0.1403E+00  0.9167E+01
  18.572  0.1398E+00  0.9168E+01
  18.582  0.1394E+00  0.9170E+01
  18.592  0.1390E+00  0.9171E+01
  18.602  0.1388E+00  0.9172E+01
  18.612  0.1386E+00  0.9174E+01
  18.622  0.1385E+00  0.9175E+01
  18.632  0.1386E+00  0.9177E+01
  18.642  0.1387E+00  0.9178E+01
  18.652  0.1390E+00  0.9179E+01
  18.662  0.1394E+00  0.9181E+01
  18.672  0.1400E+00  0.9182E+01
  18.682  0.1406E+00  0.9184E+01
  18.692  0.1414E+00  0.9185E+01
  18.702  0.1424E+00  0.9186E+01
  18.712  0.1435E+00  0.9188E+01
  18.722  0.1447E+00  0.9189E+01
  18.732  0.1461E+00  0.9191E+01
  18.742  0.1477E+00  0.9192E+01
  18.752  0.1494E+00  0.9194E+01
  18.762  0.1513E+00  0.9195E+01
  18.772  0.1534E+00  0.9197E+01
  18.782  0.1556E+00  0.9198E+01
  18.792  0.1581E+00  0.9200E+01
  18.802  0.1607E+00  0.9202E+01
  18.812  0.1635E+00  0.9203E+01
  18.822  0.1665E+00  0.9205E+01
  18.832  0.1697E+00  0.9207E+01
  18.842  0.1732E+00  0.9208E+01
  18.852  0.1768E+00  0.9210E+01
  18.862  0.1806E+00  0.9212E+01
  18.872  0.1846E+00  0.9214E+01
  18.882  0.1889E+00  0.9216E+01
  18.892  0.1934E+00  0.9218E+01
  18.902  0.1981E+00  0.9220E+01
  18.912  0.2030E+00  0.9222E+01
  18.922  0.2081E+00  0.9224E+01
  18.932  0.2135E+00  0.9226E+01
  18.942  0.2191E+00  0.9228E+01
  18.952  0.2249E+00  0.9230E+01
  18.962  0.2309E+00  0.9233E+01
  18.972  0.2372E+00  0.9235E+01
  18.982  0.2437E+00  0.9237E+01
  18.992  0.2504E+00  0.9240E+01
  19.002  0.2574E+00  0.9242E+01
  19.012  0.2645E+00  0.9245E+01
  19.022  0.2719E+00  0.9248E+01
  19.032  0.2795E+00  0.9251E+01
  19.042  0.2874E+00  0.9253E+01
  19.052  0.2954E+00  0.9256E+01
  19.062  0.3037E+00  0.9259E+01
  19.072  0.3121E+00  0.9263E+01
  19.082  0.3208E+00  0.9266E+01
  19.092  0.3296E+00  0.9269E+01
  19.102  0.3387E+00  0.9272E+01
  19.112  0.3479E+00  0.9276E+01
  19.122  0.3574E+00  0.9279E+01
  19.132  0.3670E+00  0.9283E+01
  19.142  0.3767E+00  0.9287E+01
  19.152  0.3866E+00  0.9291E+01
  19.162  0.3967E+00  0.9295E+01
  19.172  0.4069E+00  0.9299E+01
  19.182  0.4173E+00  0.9303E+01
  19.192  0.4278E+00  0.9307E+01
  19.202  0.4384E+00  0.9312E+01
  19.212  0.4491E+00  0.9316E+01
  19.222  0.4599E+00  0.9321E+01
  19.232  0.4708E+00  0.9325E+01
  19.242  0.4818E+00  0.9330E+01
  19.252  0.4928E+00  0.9335E+01
  19.262  0.5039E+00  0.9340E+01
  19.272  0.5150E+00  0.9345E+01
  19.282  0.5262E+00  0.9351E+01
  19.292  0.5374E+00  0.9356E+01
  19.302  0.5485E+00  0.9362E+01
  19.312  0.5597E+00  0.9367E+01
  19.322  0.5709E+00  0.9373E+01
  19.332  0.5820E+00  0.9379E+01
  19.342  0.5931E+00  0.9385E+01
  19.352  0.6041E+00  0.9391E+01
  19.362  0.6150E+00  0.9397E+01
  19.372  0.6259E+00  0.9403E+01
  19.382  0.6366E+00  0.9409E+01
  19.392  0.6472E+00  0.9416E+01
  19.402  0.6577E+00  0.9422E+01
  19.412  0.6681E+00  0.9429E+01
  19.422  0.6783E+00  0.9436E+01
  19.432  0.6883E+00  0.9443E+01
  19.442  0.6982E+00  0.9450E+01
  19.452  0.7078E+00  0.9457E+01
  19.462  0.7173E+00  0.9464E+01
  19.472  0.7265E+00  0.9471E+01
  19.482  0.7355E+00  0.9479E+01
  19.492  0.7442E+00  0.9486E+01
  19.502  0.7527E+00  0.9494E+01
  19.512  0.7609E+00  0.9501E+01
  19.522  0.7688E+00  0.9509E+01
  19.532  0.7765E+00  0.9517E+01
  19.542  0.7838E+00  0.9525E+01
  19.552  0.7908E+00  0.9532E+01
  19.562  0.7975E+00  0.9540E+01
  19.572  0.8039E+00  0.9548E+01
  19.582  0.8099E+00  0.9557E+01
  19.592  0.8156E+00  0.9565E+01
  19.602  0.8209E+00  0.9573E+01
  19.612  0.8258E+00  0.9581E+01
  19.622  0.8304E+00  0.9589E+01
  19.632  0.8346E+00  0.9598E+01
  19.642  0.8385E+00  0.9606E+01
  19.652  0.8419E+00  0.9615E+01
  19.662  0.8449E+00  0.9623E+01
  19.672  0.8476E+00  0.9632E+01
  19.682  0.8498E+00  0.9640E+01
  19.692  0.8517E+00  0.9649E+01
  19.702  0.8531E+00  0.9657E+01
  19.712  0.8542E+00  0.9666E+01
  19.722  0.8548E+00  0.9674E+01
  19.732  0.8550E+00  0.9683E+01
  19.742  0.8549E+00  0.9691E+01
  19.752  0.8543E+00  0.9700E+01
  19.762  0.8533E+00  0.9708E+01
  19.772  0.8520E+00  0.9717E+01
  19.782  0.8502E+00  0.9725E+01
  19.792  0.8480E+00  0.9734E+01
  19.802  0.8455E+00  0.9742E+01
  19.812  0.8426E+00  0.9751E+01
  19.822  0.8393E+00  0.9759E+01
  19.832  0.8356E+00  0.9767E+01
  19.842  0.8316E+00  0.9776E+01
  19.852  0.8272E+00  0.9784E+01
  19.862  0.8224E+00  0.9792E+01
  19.872  0.8173E+00  0.9800E+01
  19.882  0.8119E+00  0.9809E+01
  19.892  0.8061E+00  0.9817E+01
  19.902  0.8000E+00  0.9825E+01
  19.912  0.7937E+00  0.9833E+01
  19.922  0.7870E+00  0.9840E+01
  19.932  0.7800E+00  0.9848E+01
  19.942  0.7728E+00  0.9856E+01
  19.952  0.7652E+00  0.9864E+01
  19.962  0.7575E+00  0.9871E+01
  19.972  0.7494E+00  0.9879E+01
  19.982  0.7412E+00  0.9886E+01
  19.992  0.7327E+00  0.9893E+01
  20.002  0.7240E+00  0.9901E+01
  20.012  0.7151E+00  0.9908E+01
  20.022  0.7060E+00  0.9915E+01
  20.032  0.6967E+00  0.9922E+01
  20.042  0.6873E+00  0.9929E+01
  20.052  0.6777E+00  0.9936E+01
  20.062  0.6680E+00  0.9942E+01
  20.072  0.6581E+00  0.9949E+01
  20.082  0.6482E+00  0.9955E+01
  20.092  0.6381E+00  0.9962E+01
  20.102  0.6279E+00  0.9968E+01
  20.112  0.6176E+00  0.9974E+01
  20.122  0.6073E+00  0.9980E+01
  20.132  0.5969E+00  0.9986E+01
  20.142  0.5865E+00  0.9992E+01
  20.152  0.5760E+00  0.9998E+01
  20.162  0.5655E+00  0.1000E+02
  20.172  0.5550E+00  0.1001E+02
  20.182  0.5445E+00  0.1001E+02
  20.192  0.5340E+00  0.1002E+02
  20.202  0.5235E+00  0.1002E+02
  20.212  0.5130E+00  0.1003E+02
  20.222  0.5025E+00  0.1004E+02
  20.232  0.4921E+00  0.1004E+02
  20.242  0.4818E+00  0.1004E+02
  20.252  0.4715E+00  0.1005E+02
  20.262  0.4613E+00  0.1005E+02
  20.272  0.4512E+00  0.1006E+02
  20.282  0.4411E+00  0.1006E+02
  20.292  0.4311E+00  0.1007E+02
  20.302  0.4213E+00  0.1007E+02
  20.312  0.4115E+00  0.1008E+02
  20.322  0.4019E+00  0.1008E+02
  20.332  0.3923E+00  0.1008E+02
  20.342  0.3829E+00  0.1009E+02
  20.352  0.3737E+00  0.1009E+02
  20.362  0.3645E+00  0.1009E+02
  20.372  0.3555E+00  0.1010E+02
  20.382  0.3467E+00  0.1010E+02
  20.392  0.3379E+00  0.1011E+02
  20.402  0.3294E+00  0.1011E+02
  20.412  0.3210E+00  0.1011E+02
  20.422  0.3127E+00  0.1011E+02
  20.432  0.3047E+00  0.1012E+02
  20.442  0.2967E+00  0.1012E+02
  20.452  0.2890E+00  0.1012E+02
  20.462  0.2814E+00  0.1013E+02
  20.472  0.2740E+00  0.1013E+02
  20.482  0.2667E+00  0.1013E+02
  20.492  0.2597E+00  0.1013E+02
  20.502  0.2528E+00  0.1014E+02
  20.512  0.2461E+00  0.1014E+02
  20.522  0.2395E+00  0.1014E+02
  20.532  0.2332E+00  0.1014E+02
  20.542  0.2270E+00  0.1015E+02
  20.552  0.2210E+00  0.1015E+02
  20.562  0.2152E+00  0.1015E+02
  20.572  0.2095E+00  0.1015E+02
  20.582  0.2041E+00  0.1016E+02
  20.592  0.1988E+00  0.1016E+02
  20.602  0.1937E+00  0.1016E+02
  20.612  0.1887E+00  0.1016E+02
  20.622  0.1840E+00  0.1016E+02
  20.632  0.1794E+00  0.1016E+02
  20.642  0.1750E+00  0.1017E+02
  20.652  0.1707E+00  0.1017E+02
  20.662  0.1667E+00  0.1017E+02
  20.672  0.1628E+00  0.1017E+02
  20.682  0.1591E+00  0.1017E+02
  20.692  0.1555E+00  0.1017E+02
  20.702  0.1521E+00  0.1018E+02
  20.712  0.1489E+00  0.1018E+02
  20.722  0.1458E+00  0.1018E+02
  20.732  0.1430E+00  0.1018E+02
  20.742  0.1402E+00  0.1018E+02
  20.752  0.1376E+00  0.1018E+02
  20.762  0.1352E+00  0.1018E+02
  20.772  0.1330E+00  0.1019E+02
  20.782  0.1309E+00  0.1019E+02
  20.792  0.1289E+00  0.1019E+02
  20.802  0.1271E+00  0.1019E+02
  20.812  0.1255E+00  0.1019E+02
  20.822  0.1240E+00  0.1019E+02
  20.832  0.1226E+00  0.1019E+02
  20.842  0.1214E+00  0.1019E+02
  20.852  0.1204E+00  0.1020E+02
  20.862  0.1195E+00  0.1020E+02
  20.872  0.1187E+00  0.1020E+02
  20.882  0.1181E+00  0.1020E+02
  20.892  0.1176E+00  0.1020E+02
  20.902  0.1172E+00  0.1020E+02
  20.912  0.1170E+00  0.1020E+02
  20.922  0.1169E+00  0.1020E+02
  20.932  0.1170E+00  0.1021E+02
  20.942  0.1172E+00  0.1021E+02
  20.952  0.1175E+00  0.1021E+02
  20.962  0.1179E+00  0.1021E+02
  20.972  0.1185E+00  0.1021E+02
  20.982  0.1192E+00  0.1021E+02
  20.992  0.1200E+00  0.1021E+02
  21.002  0.1210E+00  0.1021E+02
  21.012  0.1220E+00  0.1021E+02
  21.022  0.1232E+00  0.1022E+02
  21.032  0.1246E+00  0.1022E+02
  21.042  0.1260E+00  0.1022E+02
  21.052  0.1276E+00  0.1022E+02
  21.062  0.1293E+00  0.1022E+02
  21.072  0.1311E+00  0.1022E+02
  21.082  0.1330E+00  0.1022E+02
  21.092  0.1350E+00  0.1023E+02
  21.102  0.1372E+00  0.1023E+02
  21.112  0.1395E+00  0.1023E+02
  21.122  0.1419E+00  0.1023E+02
  21.132  0.1444E+00  0.1023E+02
  21.142  0.1470E+00  0.1023E+02
  21.152  0.1498E+00  0.1023E+02
  21.162  0.1527E+00  0.1024E+02
  21.172  0.1557E+00  0.1024E+02
  21.182  0.1588E+00  0.1024E+02
  21.192  0.1620E+00  0.1024E+02
  21.202  0.1653E+00  0.1024E+02
  21.212  0.1688E+00  0.1024E+02
  21.222  0.1724E+00  0.1025E+02
  21.232  0.1761E+00  0.1025E+02
  21.242  0.1799E+00  0.1025E+02
  21.252  0.1839E+00  0.1025E+02
  21.262  0.1880E+00  0.1025E+02
  21.272  0.1921E+00  0.1025E+02
  21.282  0.1965E+00  0.1026E+02
  21.292  0.2009E+00  0.1026E+02
  21.302  0.2055E+00  0.1026E+02
  21.312  0.2102E+00  0.1026E+02
  21.322  0.2150E+00  0.1026E+02
  21.332  0.2199E+00  0.1027E+02
  21.342  0.2250E+00  0.1027E+02
  21.352  0.2302E+00  0.1027E+02
  21.362  0.2355E+00  0.1027E+02
  21.372  0.2410E+00  0.1028E+02
  21.382  0.2466E+00  0.1028E+02
  21.392  0.2523E+00  0.1028E+02
  21.402  0.2582E+00  0.1028E+02
  21.412  0.2642E+00  0.1029E+02
  21.422  0.2703E+00  0.1029E+02
  21.432  0.2765E+00  0.1029E+02
  21.442  0.2829E+00  0.1029E+02
  21.452  0.2894E+00  0.1030E+02
  21.462  0.2961E+00  0.1030E+02
  21.472  0.3028E+00  0.1030E+02
  21.482  0.3097E+00  0.1031E+02
  21.492  0.3167E+00  0.1031E+02
  21.502  0.3239E+00  0.1031E+02
  21.512  0.3312E+00  0.1032E+02
  21.522  0.3385E+00  0.1032E+02
  21.532  0.3460E+00  0.1032E+02
  21.542  0.3537E+00  0.1033E+02
  21.552  0.3614E+00  0.1033E+02
  21.562  0.3692E+00  0.1033E+02
  21.572  0.3772E+00  0.1034E+02
  21.582  0.3852E+00  0.1034E+02
  21.592  0.3934E+00  0.1035E+02
  21.602  0.4016E+00  0.1035E+02
  21.612  0.4099E+00  0.1035E+02
  21.622  0.4183E+00  0.1036E+02
  21.632  0.4268E+00  0.1036E+02
  21.642  0.4353E+00  0.1037E+02
  21.652  0.4439E+00  0.1037E+02
  21.662  0.4525E+00  0.1038E+02
  21.672  0.4612E+00  0.1038E+02
  21.682  0.4699E+00  0.1038E+02
  21.692  0.4787E+00  0.1039E+02
  21.702  0.4874E+00  0.1039E+02
  21.712  0.4962E+00  0.1040E+02
  21.722  0.5050E+00  0.1040E+02
  21.732  0.5138E+00  0.1041E+02
  21.742  0.5225E+00  0.1041E+02
  21.752  0.5312E+00  0.1042E+02
  21.762  0.5399E+00  0.1043E+02
  21.772  0.5485E+00  0.1043E+02
  21.782  0.5571E+00  0.1044E+02
  21.792  0.5655E+00  0.1044E+02
  21.802  0.5739E+00  0.1045E+02
  21.812  0.5822E+00  0.1045E+02
  21.822  0.5904E+00  0.1046E+02
  21.832  0.5985E+00  0.1047E+02
  21.842  0.6064E+00  0.1047E+02
  21.852  0.6142E+00  0.1048E+02
  21.862  0.6218E+00  0.1048E+02
  21.872  0.6292E+00  0.1049E+02
  21.882  0.6365E+00  0.1050E+02
  21.892  0.6435E+00  0.1050E+02
  21.902  0.6504E+00  0.1051E+02
  21.912  0.6570E+00  0.1052E+02
  21.922  0.6634E+00  0.1052E+02
  21.932  0.6696E+00  0.1053E+02
  21.942  0.6755E+00  0.1054E+02
  21.952  0.6811E+00  0.1054E+02
  21.962  0.6865E+00  0.1055E+02
  21.972  0.6915E+00  0.1056E+02
  21.982  0.6963E+00  0.1056E+02
  21.992  0.7008E+00  0.1057E+02
  22.002  0.7049E+00  0.1058E+02
  22.012  0.7088E+00  0.1059E+02
  22.022  0.7123E+00  0.1059E+02
  22.032  0.7154E+00  0.1060E+02
  22.042  0.7183E+00  0.1061E+02
  22.052  0.7207E+00  0.1061E+02
  22.062  0.7228E+00  0.1062E+02
  22.072  0.7246E+00  0.1063E+02
  22.082  0.7260E+00  0.1064E+02
  22.092  0.7270E+00  0.1064E+02
  22.102  0.7277E+00  0.1065E+02
  22.112  0.7279E+00  0.1066E+02
  22.122  0.7278E+00  0.1066E+02
  22.132  0.7274E+00  0.1067E+02
  22.142  0.7265E+00  0.1068E+02
  22.152  0.7253E+00  0.1069E+02
  22.162  0.7237E+00  0.1069E+02
  22.172  0.7217E+00  0.1070E+02
  22.182  0.7194E+00  0.1071E+02
  22.192  0.7167E+00  0.1072E+02
  22.202  0.7137E+00  0.1072E+02
  22.212  0.7103E+00  0.1073E+02
  22.222  0.7066E+00  0.1074E+02
  22.232  0.7025E+00  0.1074E+02
  22.242  0.6981E+00  0.1075E+02
  22.252  0.6934E+00  0.1076E+02
  22.262  0.6884E+00  0.1076E+02
  22.272  0.6831E+00  0.1077E+02
  22.282  0.6775E+00  0.1078E+02
  22.292  0.6716E+00  0.1078E+02
  22.302  0.6654E+00  0.1079E+02
  22.312  0.6590E+00  0.1080E+02
  22.322  0.6523E+00  0.1080E+02
  22.332  0.6455E+00  0.1081E+02
  22.342  0.6384E+00  0.1082E+02
  22.352  0.6311E+00  0.1082E+02
  22.362  0.6236E+00  0.1083E+02
  22.372  0.6160E+00  0.1084E+02
  22.382  0.6082E+00  0.1084E+02
  22.392  0.6003E+00  0.1085E+02
  22.402  0.5922E+00  0.1085E+02
  22.412  0.5841E+00  0.1086E+02
  22.422  0.5759E+00  0.1087E+02
  22.432  0.5676E+00  0.1087E+02
  22.442  0.5592E+00  0.1088E+02
  22.452  0.5508E+00  0.1088E+02
  22.462  0.5424E+00  0.1089E+02
  22.472  0.5341E+00  0.1089E+02
  22.482  0.5257E+00  0.1090E+02
  22.492  0.5173E+00  0.1090E+02
  22.502  0.5091E+00  0.1091E+02
  22.512  0.5009E+00  0.1091E+02
  22.522  0.4928E+00  0.1092E+02
  22.532  0.4847E+00  0.1092E+02
  22.542  0.4769E+00  0.1093E+02
  22.552  0.4691E+00  0.1093E+02
  22.562  0.4615E+00  0.1094E+02
  22.572  0.4541E+00  0.1094E+02
  22.582  0.4469E+00  0.1095E+02
  22.592  0.4399E+00  0.1095E+02
  22.602  0.4331E+00  0.1096E+02
  22.612  0.4266E+00  0.1096E+02
  22.622  0.4203E+00  0.1096E+02
  22.632  0.4143E+00  0.1097E+02
  22.642  0.4085E+00  0.1097E+02
  22.652  0.4031E+00  0.1098E+02
  22.662  0.3979E+00  0.1098E+02
  22.672  0.3931E+00  0.1098E+02
  22.682  0.3886E+00  0.1099E+02
  22.692  0.3844E+00  0.1099E+02
  22.702  0.3806E+00  0.1100E+02
  22.712  0.3771E+00  0.1100E+02
  22.722  0.3740E+00  0.1100E+02
  22.732  0.3713E+00  0.1101E+02
  22.742  0.3690E+00  0.1101E+02
  22.752  0.3671E+00  0.1101E+02
  22.762  0.3655E+00  0.1102E+02
  22.772  0.3644E+00  0.1102E+02
  22.782  0.3637E+00  0.1102E+02
  22.792  0.3634E+00  0.1103E+02
  22.802  0.3635E+00  0.1103E+02
  22.812  0.3640E+00  0.1104E+02
  22.822  0.3649E+00  0.1104E+02
  22.832  0.3663E+00  0.1104E+02
  22.842  0.3681E+00  0.1105E+02
  22.852  0.3703E+00  0.1105E+02
  22.862  0.3729E+00  0.1105E+02
  22.872  0.3760E+00  0.1106E+02
  22.882  0.3794E+00  0.1106E+02
  22.892  0.3833E+00  0.1107E+02
  22.902  0.3876E+00  0.1107E+02
  22.912  0.3923E+00  0.1107E+02
  22.922  0.3974E+00  0.1108E+02
  22.932  0.4028E+00  0.1108E+02
  22.942  0.4087E+00  0.1109E+02
  22.952  0.4149E+00  0.1109E+02
  22.962  0.4215E+00  0.1109E+02
  22.972  0.4284E+00  0.1110E+02
  22.982  0.4357E+00  0.1110E+02
  22.992  0.4434E+00  0.1111E+02
  23.002  0.4513E+00  0.1111E+02
  23.012  0.4596E+00  0.1112E+02
  23.022  0.4682E+00  0.1112E+02
  23.032  0.4770E+00  0.1113E+02
  23.042  0.4861E+00  0.1113E+02
  23.052  0.4955E+00  0.1114E+02
  23.062  0.5051E+00  0.1114E+02
  23.072  0.5150E+00  0.1115E+02
  23.082  0.5250E+00  0.1115E+02
  23.092  0.5353E+00  0.1116E+02
  23.102  0.5457E+00  0.1116E+02
  23.112  0.5563E+00  0.1117E+02
  23.122  0.5670E+00  0.1117E+02
  23.132  0.5779E+00  0.1118E+02
  23.142  0.5889E+00  0.1118E+02
  23.152  0.5999E+00  0.1119E+02
  23.162  0.6111E+00  0.1120E+02
  23.172  0.6223E+00  0.1120E+02
  23.182  0.6335E+00  0.1121E+02
  23.192  0.6447E+00  0.1122E+02
  23.202  0.6560E+00  0.1122E+02
  23.212  0.6672E+00  0.1123E+02
  23.222  0.6784E+00  0.1124E+02
  23.232  0.6895E+00  0.1124E+02
  23.242  0.7006E+00  0.1125E+02
  23.252  0.7116E+00  0.1126E+02
  23.262  0.7224E+00  0.1126E+02
  23.272  0.7332E+00  0.1127E+02
  23.282  0.7438E+00  0.1128E+02
  23.292  0.7542E+00  0.1129E+02
  23.302  0.7645E+00  0.1129E+02
  23.312  0.7745E+00  0.1130E+02
  23.322  0.7844E+00  0.1131E+02
  23.332  0.7940E+00  0.1132E+02
  23.342  0.8034E+00  0.1133E+02
  23.352  0.8126E+00  0.1133E+02
  23.362  0.8215E+00  0.1134E+02
  23.372  0.8301E+00  0.1135E+02
  23.382  0.8384E+00  0.1136E+02
  23.392  0.8464E+00  0.1137E+02
  23.402  0.8541E+00  0.1138E+02
  23.412  0.8615E+00  0.1138E+02
  23.422  0.8686E+00  0.1139E+02
  23.432  0.8753E+00  0.1140E+02
  23.442  0.8816E+00  0.1141E+02
  23.452  0.8876E+00  0.1142E+02
  23.462  0.8933E+00  0.1143E+02
  23.472  0.8985E+00  0.1144E+02
  23.482  0.9034E+00  0.1145E+02
  23.492  0.9080E+00  0.1146E+02
  23.502  0.9121E+00  0.1146E+02
  23.512  0.9158E+00  0.1147E+02
  23.522  0.9192E+00  0.1148E+02
  23.532  0.9221E+00  0.1149E+02
  23.542  0.9247E+00  0.1150E+02
  23.552  0.9268E+00  0.1151E+02
  23.562  0.9286E+00  0.1152E+02
  23.572  0.9300E+00  0.1153E+02
  23.582  0.9309E+00  0.1154E+02
  23.592  0.9315E+00  0.1155E+02
  23.602  0.9317E+00  0.1156E+02
  23.612  0.9315E+00  0.1157E+02
  23.622  0.9309E+00  0.1158E+02
  23.632  0.9300E+00  0.1158E+02
  23.642  0.9286E+00  0.1159E+02
  23.652  0.9269E+00  0.1160E+02
  23.662  0.9248E+00  0.1161E+02
  23.672  0.9224E+00  0.1162E+02
  23.682  0.9196E+00  0.1163E+02
  23.692  0.9165E+00  0.1164E+02
  23.702  0.9130E+00  0.1165E+02
  23.712  0.9092E+00  0.1166E+02
  23.722  0.9051E+00  0.1167E+02
  23.732  0.9006E+00  0.1168E+02
  23.742  0.8958E+00  0.1169E+02
  23.752  0.8908E+00  0.1169E+02
  23.762  0.8854E+00  0.1170E+02
  23.772  0.8798E+00  0.1171E+02
  23.782  0.8739E+00  0.1172E+02
  23.792  0.8677E+00  0.1173E+02
  23.802  0.8612E+00  0.1174E+02
  23.812  0.8546E+00  0.1175E+02
  23.822  0.8476E+00  0.1176E+02
  23.832  0.8405E+00  0.1176E+02
  23.842  0.8331E+00  0.1177E+02
  23.852  0.8255E+00  0.1178E+02
  23.862  0.8178E+00  0.1179E+02
  23.872  0.8098E+00  0.1180E+02
  23.882  0.8017E+00  0.1180E+02
  23.892  0.7934E+00  0.1181E+02
  23.902  0.7849E+00  0.1182E+02
  23.912  0.7763E+00  0.1183E+02
  23.922  0.7675E+00  0.1184E+02
  23.932  0.7587E+00  0.1184E+02
  23.942  0.7497E+00  0.1185E+02
  23.952  0.7406E+00  0.1186E+02
  23.962  0.7314E+00  0.1187E+02
  23.972  0.7221E+00  0.1187E+02
  23.982  0.7127E+00  0.1188E+02
  23.992  0.7033E+00  0.1189E+02
  24.002  0.6938E+00  0.1189E+02
  24.012  0.6842E+00  0.1190E+02
  24.022  0.6746E+00  0.1191E+02
  24.032  0.6650E+00  0.1191E+02
  24.042  0.6553E+00  0.1192E+02
  24.052  0.6457E+00  0.1193E+02
  24.062  0.6360E+00  0.1193E+02
  24.072  0.6264E+00  0.1194E+02
  24.082  0.6167E+00  0.1195E+02
  24.092  0.6071E+00  0.1195E+02
  24.102  0.5975E+00  0.1196E+02
  24.112  0.5880E+00  0.1196E+02
  24.122  0.5785E+00  0.1197E+02
  24.132  0.5691E+00  0.1198E+02
  24.142  0.5597E+00  0.1198E+02
  24.152  0.5504E+00  0.1199E+02
  24.162  0.5412E+00  0.1199E+02
  24.172  0.5321E+00  0.1200E+02
  24.182  0.5231E+00  0.1200E+02
  24.192  0.5142E+00  0.1201E+02
  24.202  0.5054E+00  0.1201E+02
  24.212  0.4967E+00  0.1202E+02
  24.222  0.4882E+00  0.1202E+02
  24.232  0.4798E+00  0.1203E+02
  24.242  0.4715E+00  0.1203E+02
  24.252  0.4634E+00  0.1204E+02
  24.262  0.4555E+00  0.1204E+02
  24.272  0.4477E+00  0.1205E+02
  24.282  0.4401E+00  0.1205E+02
  24.292  0.4326E+00  0.1205E+02
  24.302  0.4254E+00  0.1206E+02
  24.312  0.4183E+00  0.1206E+02
  24.322  0.4114E+00  0.1207E+02
  24.332  0.4048E+00  0.1207E+02
  24.342  0.3983E+00  0.1207E+02
  24.352  0.3920E+00  0.1208E+02
  24.362  0.3860E+00  0.1208E+02
  24.372  0.3801E+00  0.1209E+02
  24.382  0.3745E+00  0.1209E+02
  24.392  0.3691E+00  0.1209E+02
  24.402  0.3640E+00  0.1210E+02
  24.412  0.3590E+00  0.1210E+02
  24.422  0.3543E+00  0.1210E+02
  24.432  0.3499E+00  0.1211E+02
  24.442  0.3456E+00  0.1211E+02
  24.452  0.3416E+00  0.1211E+02
  24.462  0.3379E+00  0.1212E+02
  24.472  0.3344E+00  0.1212E+02
  24.482  0.3311E+00  0.1212E+02
  24.492  0.3281E+00  0.1213E+02
  24.502  0.3253E+00  0.1213E+02
  24.512  0.3228E+00  0.1213E+02
  24.522  0.3205E+00  0.1214E+02
  24.532  0.3185E+00  0.1214E+02
  24.542  0.3167E+00  0.1214E+02
  24.552  0.3152E+00  0.1215E+02
  24.562  0.3139E+00  0.1215E+02
  24.572  0.3128E+00  0.1215E+02
  24.582  0.3120E+00  0.1216E+02
  24.592  0.3114E+00  0.1216E+02
  24.602  0.3111E+00  0.1216E+02
  24.612  0.3110E+00  0.1217E+02
  24.622  0.3112E+00  0.1217E+02
  24.632  0.3115E+00  0.1217E+02
  24.642  0.3121E+00  0.1218E+02
  24.652  0.3130E+00  0.1218E+02
  24.662  0.3140E+00  0.1218E+02
  24.672  0.3153E+00  0.1218E+02
  24.682  0.3168E+00  0.1219E+02
  24.692  0.3186E+00  0.1219E+02
  24.702  0.3205E+00  0.1219E+02
  24.712  0.3227E+00  0.1220E+02
  24.722  0.3250E+00  0.1220E+02
  24.732  0.3276E+00  0.1220E+02
  24.742  0.3304E+00  0.1221E+02
  24.752  0.3334E+00  0.1221E+02
  24.762  0.3366E+00  0.1221E+02
  24.772  0.3399E+00  0.1222E+02
  24.782  0.3435E+00  0.1222E+02
  24.792  0.3473E+00  0.1222E+02
  24.802  0.3512E+00  0.1223E+02
  24.812  0.3554E+00  0.1223E+02
  24.822  0.3597E+00  0.1224E+02
  24.832  0.3642E+00  0.1224E+02
  24.842  0.3689E+00  0.1224E+02
  24.852  0.3738E+00  0.1225E+02
  24.862  0.3788E+00  0.1225E+02
  24.872  0.3840E+00  0.1225E+02
  24.882  0.3894E+00  0.1226E+02
  24.892  0.3950E+00  0.1226E+02
  24.902  0.4007E+00  0.1227E+02
  24.912  0.4066E+00  0.1227E+02
  24.922  0.4127E+00  0.1227E+02
  24.932  0.4189E+00  0.1228E+02
  24.942  0.4253E+00  0.1228E+02
  24.952  0.4319E+00  0.1229E+02
  24.962  0.4386E+00  0.1229E+02
  24.972  0.4455E+00  0.1230E+02
  24.982  0.4525E+00  0.1230E+02
  24.992  0.4597E+00  0.1230E+02
  25.002  0.4671E+00  0.1231E+02
  25.012  0.4746E+00  0.1231E+02
  25.022  0.4823E+00  0.1232E+02
  25.032  0.4901E+00  0.1232E+02
  25.042  0.4981E+00  0.1233E+02
  25.052  0.5062E+00  0.1233E+02
  25.062  0.5145E+00  0.1234E+02
  25.072  0.5229E+00  0.1234E+02
  25.082  0.5315E+00  0.1235E+02
  25.092  0.5403E+00  0.1235E+02
  25.102  0.5491E+00  0.1236E+02
  25.112  0.5582E+00  0.1237E+02
  25.122  0.5673E+00  0.1237E+02
  25.132  0.5766E+00  0.1238E+02
  25.142  0.5861E+00  0.1238E+02
  25.152  0.5957E+00  0.1239E+02
  25.162  0.6054E+00  0.1240E+02
  25.172  0.6152E+00  0.1240E+02
  25.182  0.6252E+00  0.1241E+02
  25.192  0.6353E+00  0.1241E+02
  25.202  0.6455E+00  0.1242E+02
  25.212  0.6558E+00  0.1243E+02
  25.222  0.6663E+00  0.1243E+02
  25.232  0.6768E+00  0.1244E+02
  25.242  0.6875E+00  0.1245E+02
  25.252  0.6982E+00  0.1245E+02
  25.262  0.7090E+00  0.1246E+02
  25.272  0.7199E+00  0.1247E+02
  25.282  0.7309E+00  0.1248E+02
  25.292  0.7419E+00  0.1248E+02
  25.302  0.7531E+00  0.1249E+02
  25.312  0.7642E+00  0.1250E+02
  25.322  0.7754E+00  0.1251E+02
  25.332  0.7867E+00  0.1251E+02
  25.342  0.7979E+00  0.1252E+02
  25.352  0.8092E+00  0.1253E+02
  25.362  0.8205E+00  0.1254E+02
  25.372  0.8318E+00  0.1255E+02
  25.382  0.8431E+00  0.1256E+02
  25.392  0.8544E+00  0.1256E+02
  25.402  0.8656E+00  0.1257E+02
  25.412  0.8768E+00  0.1258E+02
  25.422  0.8879E+00  0.1259E+02
  25.432  0.8990E+00  0.1260E+02
  25.442  0.9100E+00  0.1261E+02
  25.452  0.9209E+00  0.1262E+02
  25.462  0.9317E+00  0.1263E+02
  25.472  0.9424E+00  0.1264E+02
  25.482  0.9530E+00  0.1265E+02
  25.492  0.9634E+00  0.1266E+02
  25.502  0.9737E+00  0.1266E+02
  25.512  0.9838E+00  0.1267E+02
  25.522  0.9938E+00  0.1268E+02
  25.532  0.1004E+01  0.1269E+02
  25.542  0.1013E+01  0.1270E+02
  25.552  0.1022E+01  0.1272E+02
  25.562  0.1032E+01  0.1273E+02
  25.572  0.1040E+01  0.1274E+02
  25.582  0.1049E+01  0.1275E+02
  25.592  0.1058E+01  0.1276E+02
  25.602  0.1066E+01  0.1277E+02
  25.612  0.1074E+01  0.1278E+02
  25.622  0.1081E+01  0.1279E+02
  25.632  0.1088E+01  0.1280E+02
  25.642  0.1095E+01  0.1281E+02
  25.652  0.1102E+01  0.1282E+02
  25.662  0.1108E+01  0.1283E+02
  25.672  0.1114E+01  0.1284E+02
  25.682  0.1120E+01  0.1286E+02
  25.692  0.1125E+01  0.1287E+02
  25.702  0.1130E+01  0.1288E+02
  25.712  0.1134E+01  0.1289E+02
  25.722  0.1138E+01  0.1290E+02
  25.732  0.1142E+01  0.1291E+02
  25.742  0.1145E+01  0.1292E+02
  25.752  0.1148E+01  0.1294E+02
  25.762  0.1151E+01  0.1295E+02
  25.772  0.1153E+01  0.1296E+02
  25.782  0.1155E+01  0.1297E+02
  25.792  0.1156E+01  0.1298E+02
  25.802  0.1157E+01  0.1299E+02
  25.812  0.1157E+01  0.1300E+02
  25.822  0.1157E+01  0.1302E+02
  25.832  0.1157E+01  0.1303E+02
  25.842  0.1156E+01  0.1304E+02
  25.852  0.1155E+01  0.1305E+02
  25.862  0.1153E+01  0.1306E+02
  25.872  0.1151E+01  0.1307E+02
  25.882  0.1149E+01  0.1309E+02
  25.892  0.1146E+01  0.1310E+02
  25.902  0.1143E+01  0.1311E+02
  25.912  0.1139E+01  0.1312E+02
  25.922  0.1135E+01  0.1313E+02
  25.932  0.1130E+01  0.1314E+02
  25.942  0.1125E+01  0.1315E+02
  25.952  0.1120E+01  0.1316E+02
  25.962  0.1114E+01  0.1318E+02
  25.972  0.1108E+01  0.1319E+02
  25.982  0.1102E+01  0.1320E+02
  25.992  0.1095E+01  0.1321E+02
  26.002  0.1088E+01  0.1322E+02
  26.012  0.1081E+01  0.1323E+02
  26.022  0.1073E+01  0.1324E+02
  26.032  0.1065E+01  0.1325E+02
  26.042  0.1057E+01  0.1326E+02
  26.052  0.1048E+01  0.1327E+02
  26.062  0.1039E+01  0.1328E+02
  26.072  0.1030E+01  0.1329E+02
  26.082  0.1020E+01  0.1330E+02
  26.092  0.1011E+01  0.1331E+02
  26.102  0.1001E+01  0.1332E+02
  26.112  0.9908E+00  0.1333E+02
  26.122  0.9806E+00  0.1334E+02
  26.132  0.9701E+00  0.1335E+02
  26.142  0.9595E+00  0.1336E+02
  26.152  0.9487E+00  0.1337E+02
  26.162  0.9378E+00  0.1338E+02
  26.172  0.9267E+00  0.1339E+02
  26.182  0.9156E+00  0.1340E+02
  26.192  0.9043E+00  0.1341E+02
  26.202  0.8930E+00  0.1342E+02
  26.212  0.8816E+00  0.1343E+02
  26.222  0.8702E+00  0.1344E+02
  26.232  0.8587E+00  0.1344E+02
  26.242  0.8472E+00  0.1345E+02
  26.252  0.8357E+00  0.1346E+02
  26.262  0.8242E+00  0.1347E+02
  26.272  0.8127E+00  0.1348E+02
  26.282  0.8013E+00  0.1349E+02
  26.292  0.7899E+00  0.1349E+02
  26.302  0.7786E+00  0.1350E+02
  26.312  0.7673E+00  0.1351E+02
  26.322  0.7562E+00  0.1352E+02
  26.332  0.7451E+00  0.1352E+02
  26.342  0.7342E+00  0.1353E+02
  26.352  0.7234E+00  0.1354E+02
  26.362  0.7128E+00  0.1355E+02
  26.372  0.7023E+00  0.1355E+02
  26.382  0.6919E+00  0.1356E+02
  26.392  0.6818E+00  0.1357E+02
  26.402  0.6718E+00  0.1357E+02
  26.412  0.6620E+00  0.1358E+02
  26.422  0.6524E+00  0.1359E+02
  26.432  0.6430E+00  0.1359E+02
  26.442  0.6339E+00  0.1360E+02
  26.452  0.6250E+00  0.1361E+02
  26.462  0.6163E+00  0.1361E+02
  26.472  0.6078E+00  0.1362E+02
  26.482  0.5996E+00  0.1362E+02
  26.492  0.5917E+00  0.1363E+02
  26.502  0.5840E+00  0.1364E+02
  26.512  0.5766E+00  0.1364E+02
  26.522  0.5695E+00  0.1365E+02
  26.532  0.5626E+00  0.1365E+02
  26.542  0.5560E+00  0.1366E+02
  26.552  0.5497E+00  0.1366E+02
  26.562  0.5437E+00  0.1367E+02
  26.572  0.5379E+00  0.1367E+02
  26.582  0.5325E+00  0.1368E+02
  26.592  0.5273E+00  0.1368E+02
  26.602  0.5224E+00  0.1369E+02
  26.612  0.5178E+00  0.1370E+02
  26.622  0.5135E+00  0.1370E+02
  26.632  0.5094E+00  0.1371E+02
  26.642  0.5056E+00  0.1371E+02
  26.652  0.5022E+00  0.1372E+02
  26.662  0.4989E+00  0.1372E+02
  26.672  0.4960E+00  0.1373E+02
  26.682  0.4933E+00  0.1373E+02
  26.692  0.4909E+00  0.1374E+02
  26.702  0.4887E+00  0.1374E+02
  26.712  0.4868E+00  0.1374E+02
  26.722  0.4851E+00  0.1375E+02
  26.732  0.4837E+00  0.1375E+02
  26.742  0.4825E+00  0.1376E+02
  26.752  0.4815E+00  0.1376E+02
  26.762  0.4807E+00  0.1377E+02
  26.772  0.4801E+00  0.1377E+02
  26.782  0.4798E+00  0.1378E+02
  26.792  0.4796E+00  0.1378E+02
  26.802  0.4797E+00  0.1379E+02
  26.812  0.4799E+00  0.1379E+02
  26.822  0.4802E+00  0.1380E+02
  26.832  0.4807E+00  0.1380E+02
  26.842  0.4814E+00  0.1381E+02
  26.852  0.4822E+00  0.1381E+02
  26.862  0.4832E+00  0.1382E+02
  26.872  0.4842E+00  0.1382E+02
  26.882  0.4854E+00  0.1383E+02
  26.892  0.4867E+00  0.1383E+02
  26.902  0.4880E+00  0.1384E+02
  26.912  0.4895E+00  0.1384E+02
  26.922  0.4910E+00  0.1385E+02
  26.932  0.4926E+00  0.1385E+02
  26.942  0.4942E+00  0.1386E+02
  26.952  0.4958E+00  0.1386E+02
  26.962  0.4975E+00  0.1387E+02
  26.972  0.4992E+00  0.1387E+02
  26.982  0.5010E+00  0.1388E+02
  26.992  0.5027E+00  0.1388E+02
  27.002  0.5044E+00  0.1389E+02
  27.012  0.5061E+00  0.1389E+02
  27.022  0.5078E+00  0.1390E+02
  27.032  0.5095E+00  0.1390E+02
  27.042  0.5111E+00  0.1391E+02
  27.052  0.5127E+00  0.1391E+02
  27.062  0.5142E+00  0.1392E+02
  27.072  0.5157E+00  0.1392E+02
  27.082  0.5171E+00  0.1393E+02
  27.092  0.5184E+00  0.1393E+02
  27.102  0.5196E+00  0.1394E+02
  27.112  0.5208E+00  0.1394E+02
  27.122  0.5219E+00  0.1395E+02
  27.132  0.5229E+00  0.1395E+02
  27.142  0.5238E+00  0.1396E+02
  27.152  0.5246E+00  0.1396E+02
  27.162  0.5253E+00  0.1397E+02
  27.172  0.5258E+00  0.1397E+02
  27.182  0.5263E+00  0.1398E+02
  27.192  0.5267E+00  0.1398E+02
  27.202  0.5269E+00  0.1399E+02
  27.212  0.5271E+00  0.1400E+02
  27.222  0.5271E+00  0.1400E+02
  27.232  0.5271E+00  0.1401E+02
  27.242  0.5269E+00  0.1401E+02
  27.252  0.5266E+00  0.1402E+02
  27.262  0.5262E+00  0.1402E+02
  27.272  0.5257E+00  0.1403E+02
  27.282  0.5251E+00  0.1403E+02
  27.292  0.5244E+00  0.1404E+02
  27.302  0.5236E+00  0.1404E+02
  27.312  0.5227E+00  0.1405E+02
  27.322  0.5217E+00  0.1405E+02
  27.332  0.5207E+00  0.1406E+02
  27.342  0.5195E+00  0.1406E+02
  27.352  0.5183E+00  0.1407E+02
  27.362  0.5170E+00  0.1407E+02
  27.372  0.5156E+00  0.1408E+02
  27.382  0.5142E+00  0.1408E+02
  27.392  0.5127E+00  0.1409E+02
  27.402  0.5112E+00  0.1409E+02
  27.412  0.5096E+00  0.1410E+02
  27.422  0.5080E+00  0.1410E+02
  27.432  0.5063E+00  0.1411E+02
  27.442  0.5046E+00  0.1411E+02
  27.452  0.5029E+00  0.1412E+02
  27.462  0.5012E+00  0.1412E+02
  27.472  0.4995E+00  0.1413E+02
  27.482  0.4977E+00  0.1413E+02
  27.492  0.4960E+00  0.1414E+02
  27.502  0.4942E+00  0.1414E+02
  27.512  0.4925E+00  0.1415E+02
  27.522  0.4908E+00  0.1415E+02
  27.532  0.4891E+00  0.1416E+02
  27.542  0.4874E+00  0.1416E+02
  27.552  0.4858E+00  0.1417E+02
  27.562  0.4842E+00  0.1417E+02
  27.572  0.4826E+00  0.1418E+02
  27.582  0.4811E+00  0.1418E+02
  27.592  0.4796E+00  0.1419E+02
  27.602  0.4782E+00  0.1419E+02
  27.612  0.4768E+00  0.1420E+02
  27.622  0.4754E+00  0.1420E+02
  27.632  0.4742E+00  0.1421E+02
  27.642  0.4729E+00  0.1421E+02
  27.652  0.4718E+00  0.1422E+02
  27.662  0.4707E+00  0.1422E+02
  27.672  0.4696E+00  0.1423E+02
  27.682  0.4686E+00  0.1423E+02
  27.692  0.4677E+00  0.1424E+02
  27.702  0.4668E+00  0.1424E+02
  27.712  0.4660E+00  0.1424E+02
  27.722  0.4652E+00  0.1425E+02
  27.732  0.4645E+00  0.1425E+02
  27.742  0.4639E+00  0.1426E+02
  27.752  0.4633E+00  0.1426E+02
  27.762  0.4627E+00  0.1427E+02
  27.772  0.4622E+00  0.1427E+02
  27.782  0.4617E+00  0.1428E+02
  27.792  0.4613E+00  0.1428E+02
  27.802  0.4609E+00  0.1429E+02
  27.812  0.4605E+00  0.1429E+02
  27.822  0.4602E+00  0.1430E+02
  27.832  0.4599E+00  0.1430E+02
  27.842  0.4595E+00  0.1430E+02
  27.852  0.4593E+00  0.1431E+02
  27.862  0.4590E+00  0.1431E+02
  27.872  0.4587E+00  0.1432E+02
  27.882  0.4584E+00  0.1432E+02
  27.892  0.4581E+00  0.1433E+02
  27.902  0.4578E+00  0.1433E+02
  27.912  0.4575E+00  0.1434E+02
  27.922  0.4571E+00  0.1434E+02
  27.932  0.4567E+00  0.1435E+02
  27.942  0.4563E+00  0.1435E+02
  27.952  0.4558E+00  0.1436E+02
  27.962  0.4553E+00  0.1436E+02
  27.972  0.4548E+00  0.1436E+02
  27.982  0.4542E+00  0.1437E+02
  27.992  0.4535E+00  0.1437E+02
  28.002  0.4528E+00  0.1438E+02
  28.012  0.4520E+00  0.1438E+02
  28.022  0.4511E+00  0.1439E+02
  28.032  0.4501E+00  0.1439E+02
  28.042  0.4491E+00  0.1440E+02
  28.052  0.4479E+00  0.1440E+02
  28.062  0.4467E+00  0.1440E+02
  28.072  0.4454E+00  0.1441E+02
  28.082  0.4440E+00  0.1441E+02
  28.092  0.4425E+00  0.1442E+02
  28.102  0.4409E+00  0.1442E+02
  28.112  0.4392E+00  0.1443E+02
  28.122  0.4374E+00  0.1443E+02
  28.132  0.4355E+00  0.1444E+02
  28.142  0.4335E+00  0.1444E+02
  28.152  0.4313E+00  0.1444E+02
  28.162  0.4291E+00  0.1445E+02
  28.172  0.4268E+00  0.1445E+02
  28.182  0.4244E+00  0.1446E+02
  28.192  0.4218E+00  0.1446E+02
  28.202  0.4192E+00  0.1447E+02
  28.212  0.4165E+00  0.1447E+02
  28.222  0.4136E+00  0.1447E+02
  28.232  0.4107E+00  0.1448E+02
  28.242  0.4077E+00  0.1448E+02
  28.252  0.4046E+00  0.1449E+02
  28.262  0.4014E+00  0.1449E+02
  28.272  0.3982E+00  0.1449E+02
  28.282  0.3949E+00  0.1450E+02
  28.292  0.3915E+00  0.1450E+02
  28.302  0.3880E+00  0.1451E+02
  28.312  0.3845E+00  0.1451E+02
  28.322  0.3809E+00  0.1451E+02
  28.332  0.3773E+00  0.1452E+02
  28.342  0.3737E+00  0.1452E+02
  28.352  0.3700E+00  0.1452E+02
  28.362  0.3663E+00  0.1453E+02
  28.372  0.3626E+00  0.1453E+02
  28.382  0.3589E+00  0.1454E+02
  28.392  0.3551E+00  0.1454E+02
  28.402  0.3514E+00  0.1454E+02
  28.412  0.3477E+00  0.1455E+02
  28.422  0.3440E+00  0.1455E+02
  28.432  0.3403E+00  0.1455E+02
  28.442  0.3367E+00  0.1456E+02
  28.452  0.3332E+00  0.1456E+02
  28.462  0.3297E+00  0.1456E+02
  28.472  0.3262E+00  0.1457E+02
  28.482  0.3229E+00  0.1457E+02
  28.492  0.3196E+00  0.1457E+02
  28.502  0.3164E+00  0.1458E+02
  28.512  0.3133E+00  0.1458E+02
  28.522  0.3103E+00  0.1458E+02
  28.532  0.3075E+00  0.1459E+02
  28.542  0.3048E+00  0.1459E+02
  28.552  0.3022E+00  0.1459E+02
  28.562  0.2998E+00  0.1459E+02
  28.572  0.2975E+00  0.1460E+02
  28.582  0.2954E+00  0.1460E+02
  28.592  0.2934E+00  0.1460E+02
  28.602  0.2917E+00  0.1461E+02
  28.612  0.2901E+00  0.1461E+02
  28.622  0.2888E+00  0.1461E+02
  28.632  0.2876E+00  0.1461E+02
  28.642  0.2867E+00  0.1462E+02
  28.652  0.2860E+00  0.1462E+02
  28.662  0.2855E+00  0.1462E+02
  28.672  0.2852E+00  0.1463E+02
  28.682  0.2852E+00  0.1463E+02
  28.692  0.2854E+00  0.1463E+02
  28.702  0.2859E+00  0.1463E+02
  28.712  0.2867E+00  0.1464E+02
  28.722  0.2877E+00  0.1464E+02
  28.732  0.2890E+00  0.1464E+02
  28.742  0.2906E+00  0.1465E+02
  28.752  0.2925E+00  0.1465E+02
  28.762  0.2946E+00  0.1465E+02
  28.772  0.2970E+00  0.1466E+02
  28.782  0.2997E+00  0.1466E+02
  28.792  0.3028E+00  0.1466E+02
  28.802  0.3061E+00  0.1466E+02
  28.812  0.3097E+00  0.1467E+02
  28.822  0.3136E+00  0.1467E+02
  28.832  0.3179E+00  0.1467E+02
  28.842  0.3224E+00  0.1468E+02
  28.852  0.3272E+00  0.1468E+02
  28.862  0.3324E+00  0.1468E+02
  28.872  0.3378E+00  0.1469E+02
  28.882  0.3436E+00  0.1469E+02
  28.892  0.3497E+00  0.1469E+02
  28.902  0.3560E+00  0.1470E+02
  28.912  0.3627E+00  0.1470E+02
  28.922  0.3696E+00  0.1470E+02
  28.932  0.3769E+00  0.1471E+02
  28.942  0.3844E+00  0.1471E+02
  28.952  0.3922E+00  0.1472E+02
  28.962  0.4003E+00  0.1472E+02
  28.972  0.4087E+00  0.1472E+02
  28.982  0.4173E+00  0.1473E+02
  28.992  0.4262E+00  0.1473E+02
  29.002  0.4354E+00  0.1474E+02
  29.012  0.4448E+00  0.1474E+02
  29.022  0.4544E+00  0.1475E+02
  29.032  0.4643E+00  0.1475E+02
  29.042  0.4743E+00  0.1476E+02
  29.052  0.4846E+00  0.1476E+02
  29.062  0.4951E+00  0.1477E+02
  29.072  0.5058E+00  0.1477E+02
  29.082  0.5166E+00  0.1478E+02
  29.092  0.5276E+00  0.1478E+02
  29.102  0.5388E+00  0.1479E+02
  29.112  0.5500E+00  0.1479E+02
  29.122  0.5615E+00  0.1480E+02
  29.132  0.5730E+00  0.1480E+02
  29.142  0.5846E+00  0.1481E+02
  29.152  0.5963E+00  0.1481E+02
  29.162  0.6081E+00  0.1482E+02
  29.172  0.6199E+00  0.1483E+02
  29.182  0.6317E+00  0.1483E+02
  29.192  0.6436E+00  0.1484E+02
  29.202  0.6555E+00  0.1485E+02
  29.212  0.6673E+00  0.1485E+02
  29.222  0.6791E+00  0.1486E+02
  29.232  0.6909E+00  0.1487E+02
  29.242  0.7026E+00  0.1487E+02
  29.252  0.7142E+00  0.1488E+02
  29.262  0.7257E+00  0.1489E+02
  29.272  0.7371E+00  0.1490E+02
  29.282  0.7483E+00  0.1490E+02
  29.292  0.7594E+00  0.1491E+02
  29.302  0.7703E+00  0.1492E+02
  29.312  0.7810E+00  0.1493E+02
  29.322  0.7915E+00  0.1493E+02
  29.332  0.8018E+00  0.1494E+02
  29.342  0.8118E+00  0.1495E+02
  29.352  0.8216E+00  0.1496E+02
  29.362  0.8311E+00  0.1497E+02
  29.372  0.8403E+00  0.1498E+02
  29.382  0.8491E+00  0.1498E+02
  29.392  0.8577E+00  0.1499E+02
  29.402  0.8659E+00  0.1500E+02
  29.412  0.8738E+00  0.1501E+02
  29.422  0.8813E+00  0.1502E+02
  29.432  0.8884E+00  0.1503E+02
  29.442  0.8951E+00  0.1504E+02
  29.452  0.9014E+00  0.1505E+02
  29.462  0.9073E+00  0.1505E+02
  29.472  0.9128E+00  0.1506E+02
  29.482  0.9178E+00  0.1507E+02
  29.492  0.9224E+00  0.1508E+02
  29.502  0.9265E+00  0.1509E+02
  29.512  0.9302E+00  0.1510E+02
  29.522  0.9334E+00  0.1511E+02
  29.532  0.9362E+00  0.1512E+02
  29.542  0.9384E+00  0.1513E+02
  29.552  0.9402E+00  0.1514E+02
  29.562  0.9415E+00  0.1515E+02
  29.572  0.9423E+00  0.1516E+02
  29.582  0.9427E+00  0.1517E+02
  29.592  0.9425E+00  0.1518E+02
  29.602  0.9419E+00  0.1518E+02
  29.612  0.9408E+00  0.1519E+02
  29.622  0.9392E+00  0.1520E+02
  29.632  0.9371E+00  0.1521E+02
  29.642  0.9346E+00  0.1522E+02
  29.652  0.9317E+00  0.1523E+02
  29.662  0.9282E+00  0.1524E+02
  29.672  0.9244E+00  0.1525E+02
  29.682  0.9200E+00  0.1526E+02
  29.692  0.9153E+00  0.1527E+02
  29.702  0.9102E+00  0.1528E+02
  29.712  0.9046E+00  0.1529E+02
  29.722  0.8987E+00  0.1530E+02
  29.732  0.8923E+00  0.1530E+02
  29.742  0.8856E+00  0.1531E+02
  29.752  0.8786E+00  0.1532E+02
  29.762  0.8712E+00  0.1533E+02
  29.772  0.8635E+00  0.1534E+02
  29.782  0.8555E+00  0.1535E+02
  29.792  0.8472E+00  0.1536E+02
  29.802  0.8386E+00  0.1537E+02
  29.812  0.8298E+00  0.1537E+02
  29.822  0.8207E+00  0.1538E+02
  29.832  0.8114E+00  0.1539E+02
  29.842  0.8019E+00  0.1540E+02
  29.852  0.7922E+00  0.1541E+02
  29.862  0.7823E+00  0.1541E+02
  29.872  0.7722E+00  0.1542E+02
  29.882  0.7621E+00  0.1543E+02
  29.892  0.7518E+00  0.1544E+02
  29.902  0.7414E+00  0.1544E+02
  29.912  0.7309E+00  0.1545E+02
  29.922  0.7203E+00  0.1546E+02
  29.932  0.7097E+00  0.1547E+02
  29.942  0.6991E+00  0.1547E+02
  29.952  0.6885E+00  0.1548E+02
  29.962  0.6778E+00  0.1549E+02
  29.972  0.6672E+00  0.1549E+02
  29.982  0.6566E+00  0.1550E+02
  29.992  0.6460E+00  0.1551E+02
  30.002  0.6355E+00  0.1551E+02
  30.012  0.6251E+00  0.1552E+02
  30.022  0.6147E+00  0.1552E+02
  30.032  0.6045E+00  0.1553E+02
  30.042  0.5944E+00  0.1554E+02
  30.052  0.5844E+00  0.1554E+02
  30.062  0.5745E+00  0.1555E+02
  30.072  0.5648E+00  0.1555E+02
  30.082  0.5553E+00  0.1556E+02
  30.092  0.5459E+00  0.1556E+02
  30.102  0.5367E+00  0.1557E+02
  30.112  0.5277E+00  0.1558E+02
  30.122  0.5189E+00  0.1558E+02
  30.132  0.5103E+00  0.1559E+02
  30.142  0.5019E+00  0.1559E+02
  30.152  0.4938E+00  0.1560E+02
  30.162  0.4858E+00  0.1560E+02
  30.172  0.4781E+00  0.1561E+02
  30.182  0.4707E+00  0.1561E+02
  30.192  0.4634E+00  0.1561E+02
  30.202  0.4564E+00  0.1562E+02
  30.212  0.4497E+00  0.1562E+02
  30.222  0.4432E+00  0.1563E+02
  30.232  0.4370E+00  0.1563E+02
  30.242  0.4310E+00  0.1564E+02
  30.252  0.4253E+00  0.1564E+02
  30.262  0.4199E+00  0.1565E+02
  30.272  0.4147E+00  0.1565E+02
  30.282  0.4098E+00  0.1565E+02
  30.292  0.4051E+00  0.1566E+02
  30.302  0.4007E+00  0.1566E+02
  30.312  0.3966E+00  0.1567E+02
  30.322  0.3927E+00  0.1567E+02
  30.332  0.3891E+00  0.1567E+02
  30.342  0.3857E+00  0.1568E+02
  30.352  0.3826E+00  0.1568E+02
  30.362  0.3798E+00  0.1568E+02
  30.372  0.3772E+00  0.1569E+02
  30.382  0.3749E+00  0.1569E+02
  30.392  0.3728E+00  0.1570E+02
  30.402  0.3710E+00  0.1570E+02
  30.412  0.3694E+00  0.1570E+02
  30.422  0.3680E+00  0.1571E+02
  30.432  0.3669E+00  0.1571E+02
  30.442  0.3660E+00  0.1571E+02
  30.452  0.3654E+00  0.1572E+02
  30.462  0.3649E+00  0.1572E+02
  30.472  0.3647E+00  0.1573E+02
  30.482  0.3647E+00  0.1573E+02
  30.492  0.3650E+00  0.1573E+02
  30.502  0.3654E+00  0.1574E+02
  30.512  0.3660E+00  0.1574E+02
  30.522  0.3669E+00  0.1574E+02
  30.532  0.3679E+00  0.1575E+02
  30.542  0.3691E+00  0.1575E+02
  30.552  0.3706E+00  0.1575E+02
  30.562  0.3722E+00  0.1576E+02
  30.572  0.3740E+00  0.1576E+02
  30.582  0.3759E+00  0.1577E+02
  30.592  0.3780E+00  0.1577E+02
  30.602  0.3803E+00  0.1577E+02
  30.612  0.3828E+00  0.1578E+02
  30.622  0.3854E+00  0.1578E+02
  30.632  0.3881E+00  0.1579E+02
  30.642  0.3910E+00  0.1579E+02
  30.652  0.3940E+00  0.1579E+02
  30.662  0.3972E+00  0.1580E+02
  30.672  0.4005E+00  0.1580E+02
  30.682  0.4039E+00  0.1580E+02
  30.692  0.4075E+00  0.1581E+02
  30.702  0.4111E+00  0.1581E+02
  30.712  0.4149E+00  0.1582E+02
  30.722  0.4188E+00  0.1582E+02
  30.732  0.4228E+00  0.1583E+02
  30.742  0.4268E+00  0.1583E+02
  30.752  0.4310E+00  0.1583E+02
  30.762  0.4352E+00  0.1584E+02
  30.772  0.4396E+00  0.1584E+02
  30.782  0.4440E+00  0.1585E+02
  30.792  0.4485E+00  0.1585E+02
  30.802  0.4531E+00  0.1586E+02
  30.812  0.4577E+00  0.1586E+02
  30.822  0.4624E+00  0.1587E+02
  30.832  0.4671E+00  0.1587E+02
  30.842  0.4720E+00  0.1588E+02
  30.852  0.4768E+00  0.1588E+02
  30.862  0.4818E+00  0.1588E+02
  30.872  0.4868E+00  0.1589E+02
  30.882  0.4918E+00  0.1589E+02
  30.892  0.4969E+00  0.1590E+02
  30.902  0.5020E+00  0.1590E+02
  30.912  0.5072E+00  0.1591E+02
  30.922  0.5124E+00  0.1591E+02
  30.932  0.5176E+00  0.1592E+02
  30.942  0.5230E+00  0.1593E+02
  30.952  0.5283E+00  0.1593E+02
  30.962  0.5337E+00  0.1594E+02
  30.972  0.5391E+00  0.1594E+02
  30.982  0.5446E+00  0.1595E+02
  30.992  0.5501E+00  0.1595E+02
  31.002  0.5557E+00  0.1596E+02
  31.012  0.5613E+00  0.1596E+02
  31.022  0.5670E+00  0.1597E+02
  31.032  0.5727E+00  0.1597E+02
  31.042  0.5785E+00  0.1598E+02
  31.052  0.5843E+00  0.1599E+02
  31.062  0.5902E+00  0.1599E+02
  31.072  0.5962E+00  0.1600E+02
  31.082  0.6022E+00  0.1600E+02
  31.092  0.6083E+00  0.1601E+02
  31.102  0.6145E+00  0.1602E+02
  31.112  0.6208E+00  0.1602E+02
  31.122  0.6271E+00  0.1603E+02
  31.132  0.6335E+00  0.1604E+02
  31.142  0.6401E+00  0.1604E+02
  31.152  0.6467E+00  0.1605E+02
  31.162  0.6534E+00  0.1605E+02
  31.172  0.6602E+00  0.1606E+02
  31.182  0.6671E+00  0.1607E+02
  31.192  0.6742E+00  0.1607E+02
  31.202  0.6813E+00  0.1608E+02
  31.212  0.6886E+00  0.1609E+02
  31.222  0.6960E+00  0.1610E+02
  31.232  0.7035E+00  0.1610E+02
  31.242  0.7111E+00  0.1611E+02
  31.252  0.7189E+00  0.1612E+02
  31.262  0.7269E+00  0.1612E+02
  31.272  0.7349E+00  0.1613E+02
  31.282  0.7431E+00  0.1614E+02
  31.292  0.7515E+00  0.1615E+02
  31.302  0.7600E+00  0.1615E+02
  31.312  0.7686E+00  0.1616E+02
  31.322  0.7774E+00  0.1617E+02
  31.332  0.7863E+00  0.1618E+02
  31.342  0.7954E+00  0.1619E+02
  31.352  0.8046E+00  0.1619E+02
  31.362  0.8140E+00  0.1620E+02
  31.372  0.8235E+00  0.1621E+02
  31.382  0.8332E+00  0.1622E+02
  31.392  0.8430E+00  0.1623E+02
  31.402  0.8529E+00  0.1623E+02
  31.412  0.8630E+00  0.1624E+02
  31.422  0.8732E+00  0.1625E+02
  31.432  0.8835E+00  0.1626E+02
  31.442  0.8939E+00  0.1627E+02
  31.452  0.9044E+00  0.1628E+02
  31.462  0.9150E+00  0.1629E+02
  31.472  0.9257E+00  0.1630E+02
  31.482  0.9365E+00  0.1631E+02
  31.492  0.9474E+00  0.1632E+02
  31.502  0.9583E+00  0.1633E+02
  31.512  0.9693E+00  0.1634E+02
  31.522  0.9803E+00  0.1635E+02
  31.532  0.9914E+00  0.1636E+02
  31.542  0.1002E+01  0.1637E+02
  31.552  0.1014E+01  0.1638E+02
  31.562  0.1025E+01  0.1639E+02
  31.572  0.1036E+01  0.1640E+02
  31.582  0.1047E+01  0.1641E+02
  31.592  0.1058E+01  0.1642E+02
  31.602  0.1068E+01  0.1643E+02
  31.612  0.1079E+01  0.1644E+02
  31.622  0.1090E+01  0.1645E+02
  31.632  0.1100E+01  0.1646E+02
  31.642  0.1111E+01  0.1647E+02
  31.652  0.1121E+01  0.1648E+02
  31.662  0.1131E+01  0.1649E+02
  31.672  0.1141E+01  0.1651E+02
  31.682  0.1151E+01  0.1652E+02
  31.692  0.1161E+01  0.1653E+02
  31.702  0.1170E+01  0.1654E+02
  31.712  0.1179E+01  0.1655E+02
  31.722  0.1188E+01  0.1656E+02
  31.732  0.1196E+01  0.1658E+02
  31.742  0.1204E+01  0.1659E+02
  31.752  0.1212E+01  0.1660E+02
  31.762  0.1220E+01  0.1661E+02
  31.772  0.1227E+01  0.1662E+02
  31.782  0.1234E+01  0.1664E+02
  31.792  0.1240E+01  0.1665E+02
  31.802  0.1246E+01  0.1666E+02
  31.812  0.1252E+01  0.1667E+02
  31.822  0.1257E+01  0.1669E+02
  31.832  0.1262E+01  0.1670E+02
  31.842  0.1266E+01  0.1671E+02
  31.852  0.1270E+01  0.1672E+02
  31.862  0.1273E+01  0.1674E+02
  31.872  0.1276E+01  0.1675E+02
  31.882  0.1279E+01  0.1676E+02
  31.892  0.1281E+01  0.1678E+02
  31.902  0.1282E+01  0.1679E+02
  31.912  0.1283E+01  0.1680E+02
  31.922  0.1283E+01  0.1681E+02
  31.932  0.1283E+01  0.1683E+02
  31.942  0.1283E+01  0.1684E+02
  31.952  0.1281E+01  0.1685E+02
  31.962  0.1280E+01  0.1687E+02
  31.972  0.1277E+01  0.1688E+02
  31.982  0.1275E+01  0.1689E+02
  31.992  0.1271E+01  0.1690E+02
  32.002  0.1268E+01  0.1692E+02
  32.012  0.1263E+01  0.1693E+02
  32.022  0.1258E+01  0.1694E+02
  32.032  0.1253E+01  0.1695E+02
  32.042  0.1247E+01  0.1697E+02
  32.052  0.1240E+01  0.1698E+02
  32.062  0.1234E+01  0.1699E+02
  32.072  0.1226E+01  0.1700E+02
  32.082  0.1218E+01  0.1702E+02
  32.092  0.1210E+01  0.1703E+02
  32.102  0.1201E+01  0.1704E+02
  32.112  0.1192E+01  0.1705E+02
  32.122  0.1182E+01  0.1706E+02
  32.132  0.1172E+01  0.1708E+02
  32.142  0.1161E+01  0.1709E+02
  32.152  0.1150E+01  0.1710E+02
  32.162  0.1139E+01  0.1711E+02
  32.172  0.1127E+01  0.1712E+02
  32.182  0.1115E+01  0.1713E+02
  32.192  0.1102E+01  0.1714E+02
  32.202  0.1089E+01  0.1715E+02
  32.212  0.1076E+01  0.1716E+02
  32.222  0.1063E+01  0.1718E+02
  32.232  0.1049E+01  0.1719E+02
  32.242  0.1035E+01  0.1720E+02
  32.252  0.1021E+01  0.1721E+02
  32.262  0.1006E+01  0.1722E+02
  32.272  0.9916E+00  0.1723E+02
  32.282  0.9767E+00  0.1724E+02
  32.292  0.9617E+00  0.1725E+02
  32.302  0.9465E+00  0.1726E+02
  32.312  0.9312E+00  0.1726E+02
  32.322  0.9158E+00  0.1727E+02
  32.332  0.9002E+00  0.1728E+02
  32.342  0.8846E+00  0.1729E+02
  32.352  0.8689E+00  0.1730E+02
  32.362  0.8532E+00  0.1731E+02
  32.372  0.8374E+00  0.1732E+02
  32.382  0.8217E+00  0.1733E+02
  32.392  0.8059E+00  0.1733E+02
  32.402  0.7901E+00  0.1734E+02
  32.412  0.7744E+00  0.1735E+02
  32.422  0.7587E+00  0.1736E+02
  32.432  0.7431E+00  0.1736E+02
  32.442  0.7276E+00  0.1737E+02
  32.452  0.7121E+00  0.1738E+02
  32.462  0.6968E+00  0.1739E+02
  32.472  0.6816E+00  0.1739E+02
  32.482  0.6665E+00  0.1740E+02
  32.492  0.6516E+00  0.1741E+02
  32.502  0.6368E+00  0.1741E+02
  32.512  0.6221E+00  0.1742E+02
  32.522  0.6077E+00  0.1742E+02
  32.532  0.5934E+00  0.1743E+02
  32.542  0.5794E+00  0.1744E+02
  32.552  0.5655E+00  0.1744E+02
  32.562  0.5518E+00  0.1745E+02
  32.572  0.5384E+00  0.1745E+02
  32.582  0.5252E+00  0.1746E+02
  32.592  0.5122E+00  0.1746E+02
  32.602  0.4995E+00  0.1747E+02
  32.612  0.4870E+00  0.1747E+02
  32.622  0.4748E+00  0.1748E+02
  32.632  0.4628E+00  0.1748E+02
  32.642  0.4510E+00  0.1749E+02
  32.652  0.4396E+00  0.1749E+02
  32.662  0.4284E+00  0.1750E+02
  32.672  0.4175E+00  0.1750E+02
  32.682  0.4068E+00  0.1750E+02
  32.692  0.3964E+00  0.1751E+02
  32.702  0.3863E+00  0.1751E+02
  32.712  0.3765E+00  0.1752E+02
  32.722  0.3669E+00  0.1752E+02
  32.732  0.3576E+00  0.1752E+02
  32.742  0.3486E+00  0.1753E+02
  32.752  0.3399E+00  0.1753E+02
  32.762  0.3314E+00  0.1753E+02
  32.772  0.3232E+00  0.1754E+02
  32.782  0.3153E+00  0.1754E+02
  32.792  0.3076E+00  0.1754E+02
  32.802  0.3003E+00  0.1755E+02
  32.812  0.2932E+00  0.1755E+02
  32.822  0.2863E+00  0.1755E+02
  32.832  0.2797E+00  0.1755E+02
  32.842  0.2734E+00  0.1756E+02
  32.852  0.2673E+00  0.1756E+02
  32.862  0.2614E+00  0.1756E+02
  32.872  0.2558E+00  0.1756E+02
  32.882  0.2505E+00  0.1757E+02
  32.892  0.2454E+00  0.1757E+02
  32.902  0.2405E+00  0.1757E+02
  32.912  0.2358E+00  0.1757E+02
  32.922  0.2314E+00  0.1758E+02
  32.932  0.2272E+00  0.1758E+02
  32.942  0.2232E+00  0.1758E+02
  32.952  0.2194E+00  0.1758E+02
  32.962  0.2158E+00  0.1759E+02
  32.972  0.2124E+00  0.1759E+02
  32.982  0.2092E+00  0.1759E+02
  32.992  0.2062E+00  0.1759E+02
  33.002  0.2034E+00  0.1759E+02
  33.012  0.2007E+00  0.1760E+02
  33.022  0.1983E+00  0.1760E+02
  33.032  0.1959E+00  0.1760E+02
  33.042  0.1938E+00  0.1760E+02
  33.052  0.1918E+00  0.1760E+02
  33.062  0.1899E+00  0.1761E+02
  33.072  0.1881E+00  0.1761E+02
  33.082  0.1865E+00  0.1761E+02
  33.092  0.1851E+00  0.1761E+02
  33.102  0.1837E+00  0.1761E+02
  33.112  0.1825E+00  0.1761E+02
  33.122  0.1813E+00  0.1762E+02
  33.132  0.1803E+00  0.1762E+02
  33.142  0.1794E+00  0.1762E+02
  33.152  0.1785E+00  0.1762E+02
  33.162  0.1778E+00  0.1762E+02
  33.172  0.1771E+00  0.1763E+02
  33.182  0.1764E+00  0.1763E+02
  33.192  0.1759E+00  0.1763E+02
  33.202  0.1754E+00  0.1763E+02
  33.212  0.1749E+00  0.1763E+02
  33.222  0.1745E+00  0.1763E+02
  33.232  0.1741E+00  0.1764E+02
  33.242  0.1738E+00  0.1764E+02
  33.252  0.1735E+00  0.1764E+02
  33.262  0.1732E+00  0.1764E+02
  33.272  0.1729E+00  0.1764E+02
  33.282  0.1727E+00  0.1764E+02
  33.292  0.1724E+00  0.1765E+02
  33.302  0.1721E+00  0.1765E+02
  33.312  0.1719E+00  0.1765E+02
  33.322  0.1716E+00  0.1765E+02
  33.332  0.1713E+00  0.1765E+02
  33.342  0.1710E+00  0.1765E+02
  33.352  0.1707E+00  0.1766E+02
  33.362  0.1703E+00  0.1766E+02
  33.372  0.1700E+00  0.1766E+02
  33.382  0.1695E+00  0.1766E+02
  33.392  0.1691E+00  0.1766E+02
  33.402  0.1686E+00  0.1766E+02
  33.412  0.1680E+00  0.1767E+02
  33.422  0.1675E+00  0.1767E+02
  33.432  0.1668E+00  0.1767E+02
  33.442  0.1661E+00  0.1767E+02
  33.452  0.1654E+00  0.1767E+02
  33.462  0.1646E+00  0.1767E+02
  33.472  0.1637E+00  0.1768E+02
  33.482  0.1628E+00  0.1768E+02
  33.492  0.1618E+00  0.1768E+02
  33.502  0.1608E+00  0.1768E+02
  33.512  0.1597E+00  0.1768E+02
  33.522  0.1586E+00  0.1768E+02
  33.532  0.1573E+00  0.1769E+02
  33.542  0.1560E+00  0.1769E+02
  33.552  0.1547E+00  0.1769E+02
  33.562  0.1533E+00  0.1769E+02
  33.572  0.1518E+00  0.1769E+02
  33.582  0.1503E+00  0.1769E+02
  33.592  0.1487E+00  0.1770E+02
  33.602  0.1470E+00  0.1770E+02
  33.612  0.1453E+00  0.1770E+02
  33.622  0.1436E+00  0.1770E+02
  33.632  0.1417E+00  0.1770E+02
  33.642  0.1399E+00  0.1770E+02
  33.652  0.1379E+00  0.1770E+02
  33.662  0.1360E+00  0.1771E+02
  33.672  0.1339E+00  0.1771E+02
  33.682  0.1319E+00  0.1771E+02
  33.692  0.1298E+00  0.1771E+02
  33.702  0.1276E+00  0.1771E+02
  33.712  0.1254E+00  0.1771E+02
  33.722  0.1232E+00  0.1771E+02
  33.732  0.1210E+00  0.1771E+02
  33.742  0.1187E+00  0.1772E+02
  33.752  0.1164E+00  0.1772E+02
  33.762  0.1140E+00  0.1772E+02
  33.772  0.1117E+00  0.1772E+02
  33.782  0.1093E+00  0.1772E+02
  33.792  0.1069E+00  0.1772E+02
  33.802  0.1045E+00  0.1772E+02
  33.812  0.1021E+00  0.1772E+02
  33.822  0.9973E-01  0.1772E+02
  33.832  0.9731E-01  0.1772E+02
  33.842  0.9490E-01  0.1773E+02
  33.852  0.9249E-01  0.1773E+02
  33.862  0.9009E-01  0.1773E+02
  33.872  0.8769E-01  0.1773E+02
  33.882  0.8530E-01  0.1773E+02
  33.892  0.8293E-01  0.1773E+02
  33.902  0.8057E-01  0.1773E+02
  33.912  0.7823E-01  0.1773E+02
  33.922  0.7592E-01  0.1773E+02
  33.932  0.7362E-01  0.1773E+02
  33.942  0.7135E-01  0.1773E+02
  33.952  0.6910E-01  0.1773E+02
  33.962  0.6688E-01  0.1774E+02
  33.972  0.6469E-01  0.1774E+02
  33.982  0.6254E-01  0.1774E+02
  33.992  0.6042E-01  0.1774E+02
  34.002  0.5833E-01  0.1774E+02
  34.012  0.5628E-01  0.1774E+02
  34.022  0.5427E-01  0.1774E+02
  34.032  0.5229E-01  0.1774E+02
  34.042  0.5036E-01  0.1774E+02
  34.052  0.4846E-01  0.1774E+02
  34.062  0.4661E-01  0.1774E+02
  34.072  0.4480E-01  0.1774E+02
  34.082  0.4303E-01  0.1774E+02
  34.092  0.4131E-01  0.1774E+02
  34.102  0.3963E-01  0.1774E+02
  34.112  0.3800E-01  0.1774E+02
  34.122  0.3641E-01  0.1774E+02
  34.132  0.3486E-01  0.1774E+02
  34.142  0.3336E-01  0.1774E+02
  34.152  0.3191E-01  0.1774E+02
  34.162  0.3050E-01  0.1774E+02
  34.172  0.2913E-01  0.1775E+02
  34.182  0.2781E-01  0.1775E+02
  34.192  0.2653E-01  0.1775E+02
  34.202  0.2530E-01  0.1775E+02
  34.212  0.2411E-01  0.1775E+02
  34.222  0.2296E-01  0.1775E+02
  34.232  0.2186E-01  0.1775E+02
  34.242  0.2079E-01  0.1775E+02
  34.252  0.1977E-01  0.1775E+02
  34.262  0.1879E-01  0.1775E+02
  34.272  0.1784E-01  0.1775E+02
  34.282  0.1694E-01  0.1775E+02
  34.292  0.1608E-01  0.1775E+02
  34.302  0.1525E-01  0.1775E+02
  34.312  0.1446E-01  0.1775E+02
  34.322  0.1370E-01  0.1775E+02
  34.332  0.1298E-01  0.1775E+02
  34.342  0.1229E-01  0.1775E+02
  34.352  0.1164E-01  0.1775E+02
  34.362  0.1102E-01  0.1775E+02
  34.372  0.1043E-01  0.1775E+02
  34.382  0.9865E-02  0.1775E+02
  34.392  0.9335E-02  0.1775E+02
  34.402  0.8833E-02  0.1775E+02
  34.412  0.8359E-02  0.1775E+02
  34.422  0.7912E-02  0.1775E+02
  34.432  0.7491E-02  0.1775E+02
  34.442  0.7095E-02  0.1775E+02
  34.452  0.6724E-02  0.1775E+02
  34.462  0.6376E-02  0.1775E+02
  34.472  0.6051E-02  0.1775E+02
  34.482  0.5748E-02  0.1775E+02
  34.492  0.5466E-02  0.1775E+02
  34.502  0.5205E-02  0.1775E+02
  34.512  0.4963E-02  0.1775E+02
  34.522  0.4740E-02  0.1775E+02
  34.532  0.4536E-02  0.1775E+02
  34.542  0.4349E-02  0.1775E+02
  34.552  0.4179E-02  0.1775E+02
  34.562  0.4026E-02  0.1775E+02
  34.572  0.3888E-02  0.1775E+02
  34.582  0.3765E-02  0.1775E+02
  34.592  0.3657E-02  0.1775E+02
  34.602  0.3564E-02  0.1775E+02
  34.612  0.3483E-02  0.1775E+02
  34.622  0.3416E-02  0.1775E+02
  34.632  0.3361E-02  0.1775E+02
  34.642  0.3318E-02  0.1775E+02
  34.652  0.3287E-02  0.1775E+02
  34.662  0.3268E-02  0.1775E+02
  34.672  0.3259E-02  0.1775E+02
  34.682  0.3260E-02  0.1775E+02
  34.692  0.3272E-02  0.1775E+02
  34.702  0.3293E-02  0.1775E+02
  34.712  0.3324E-02  0.1775E+02
  34.722  0.3364E-02  0.1775E+02
  34.732  0.3413E-02  0.1775E+02
  34.742  0.3470E-02  0.1775E+02
  34.752  0.3536E-02  0.1775E+02
  34.762  0.3610E-02  0.1775E+02
  34.772  0.3691E-02  0.1775E+02
  34.782  0.3780E-02  0.1775E+02
  34.792  0.3877E-02  0.1775E+02
  34.802  0.3980E-02  0.1775E+02
  34.812  0.4091E-02  0.1775E+02
  34.822  0.4209E-02  0.1775E+02
  34.832  0.4333E-02  0.1775E+02
  34.842  0.4464E-02  0.1775E+02
  34.852  0.4602E-02  0.1775E+02
  34.862  0.4745E-02  0.1775E+02
  34.872  0.4895E-02  0.1775E+02
  34.882  0.5051E-02  0.1775E+02
  34.892  0.5213E-02  0.1775E+02
  34.902  0.5382E-02  0.1775E+02
  34.912  0.5556E-02  0.1775E+02
  34.922  0.5736E-02  0.1775E+02
  34.932  0.5922E-02  0.1775E+02
  34.942  0.6113E-02  0.1775E+02
  34.952  0.6311E-02  0.1775E+02
  34.962  0.6514E-02  0.1775E+02
  34.972  0.6724E-02  0.1775E+02
  34.982  0.6939E-02  0.1775E+02
  34.992  0.7161E-02  0.1775E+02
  35.002  0.7388E-02  0.1775E+02
  35.012  0.7622E-02  0.1775E+02
  35.022  0.7862E-02  0.1775E+02
  35.032  0.8109E-02  0.1775E+02
  35.042  0.8362E-02  0.1775E+02
  35.052  0.8622E-02  0.1775E+02
  35.062  0.8889E-02  0.1775E+02
  35.072  0.9164E-02  0.1775E+02
  35.082  0.9445E-02  0.1775E+02
  35.092  0.9735E-02  0.1775E+02
  35.102  0.1003E-01  0.1775E+02
  35.112  0.1034E-01  0.1775E+02
  35.122  0.1065E-01  0.1775E+02
  35.132  0.1097E-01  0.1775E+02
  35.142  0.1131E-01  0.1775E+02
  35.152  0.1165E-01  0.1775E+02
  35.162  0.1200E-01  0.1775E+02
  35.172  0.1237E-01  0.1775E+02
  35.182  0.1274E-01  0.1775E+02
  35.192  0.1313E-01  0.1775E+02
  35.202  0.1352E-01  0.1775E+02
  35.212  0.1393E-01  0.1775E+02
  35.222  0.1436E-01  0.1775E+02
  35.232  0.1480E-01  0.1775E+02
  35.242  0.1525E-01  0.1775E+02
  35.252  0.1572E-01  0.1775E+02
  35.262  0.1620E-01  0.1775E+02
  35.272  0.1670E-01  0.1775E+02
  35.282  0.1722E-01  0.1776E+02
  35.292  0.1775E-01  0.1776E+02
  35.302  0.1831E-01  0.1776E+02
  35.312  0.1888E-01  0.1776E+02
  35.322  0.1948E-01  0.1776E+02
  35.332  0.2009E-01  0.1776E+02
  35.342  0.2073E-01  0.1776E+02
  35.352  0.2139E-01  0.1776E+02
  35.362  0.2208E-01  0.1776E+02
  35.372  0.2279E-01  0.1776E+02
  35.382  0.2352E-01  0.1776E+02
  35.392  0.2428E-01  0.1776E+02
  35.402  0.2507E-01  0.1776E+02
  35.412  0.2588E-01  0.1776E+02
  35.422  0.2673E-01  0.1776E+02
  35.432  0.2760E-01  0.1776E+02
  35.442  0.2851E-01  0.1776E+02
  35.452  0.2944E-01  0.1776E+02
  35.462  0.3041E-01  0.1776E+02
  35.472  0.3141E-01  0.1776E+02
  35.482  0.3244E-01  0.1776E+02
  35.492  0.3351E-01  0.1776E+02
  35.502  0.3462E-01  0.1776E+02
  35.512  0.3575E-01  0.1776E+02
  35.522  0.3693E-01  0.1776E+02
  35.532  0.3814E-01  0.1776E+02
  35.542  0.3938E-01  0.1776E+02
  35.552  0.4067E-01  0.1776E+02
  35.562  0.4199E-01  0.1776E+02
  35.572  0.4335E-01  0.1776E+02
  35.582  0.4475E-01  0.1776E+02
  35.592  0.4619E-01  0.1776E+02
  35.602  0.4766E-01  0.1776E+02
  35.612  0.4918E-01  0.1777E+02
  35.622  0.5073E-01  0.1777E+02
  35.632  0.5232E-01  0.1777E+02
  35.642  0.5395E-01  0.1777E+02
  35.652  0.5562E-01  0.1777E+02
  35.662  0.5733E-01  0.1777E+02
  35.672  0.5907E-01  0.1777E+02
  35.682  0.6085E-01  0.1777E+02
  35.692  0.6267E-01  0.1777E+02
  35.702  0.6452E-01  0.1777E+02
  35.712  0.6641E-01  0.1777E+02
  35.722  0.6833E-01  0.1777E+02
  35.732  0.7029E-01  0.1777E+02
  35.742  0.7227E-01  0.1777E+02
  35.752  0.7429E-01  0.1777E+02
  35.762  0.7634E-01  0.1777E+02
  35.772  0.7842E-01  0.1778E+02
  35.782  0.8052E-01  0.1778E+02
  35.792  0.8265E-01  0.1778E+02
  35.802  0.8481E-01  0.1778E+02
  35.812  0.8699E-01  0.1778E+02
  35.822  0.8919E-01  0.1778E+02
  35.832  0.9141E-01  0.1778E+02
  35.842  0.9365E-01  0.1778E+02
  35.852  0.9590E-01  0.1778E+02
  35.862  0.9817E-01  0.1778E+02
  35.872  0.1005E+00  0.1778E+02
  35.882  0.1027E+00  0.1779E+02
  35.892  0.1050E+00  0.1779E+02
  35.902  0.1074E+00  0.1779E+02
  35.912  0.1097E+00  0.1779E+02
  35.922  0.1120E+00  0.1779E+02
  35.932  0.1143E+00  0.1779E+02
  35.942  0.1166E+00  0.1779E+02
  35.952  0.1189E+00  0.1779E+02
  35.962  0.1212E+00  0.1779E+02
  35.972  0.1235E+00  0.1780E+02
  35.982  0.1258E+00  0.1780E+02
  35.992  0.1281E+00  0.1780E+02
  36.002  0.1303E+00  0.1780E+02
  36.012  0.1326E+00  0.1780E+02
  36.022  0.1348E+00  0.1780E+02
  36.032  0.1370E+00  0.1780E+02
  36.042  0.1392E+00  0.1781E+02
  36.052  0.1413E+00  0.1781E+02
  36.062  0.1434E+00  0.1781E+02
  36.072  0.1455E+00  0.1781E+02
  36.082  0.1476E+00  0.1781E+02
  36.092  0.1496E+00  0.1781E+02
  36.102  0.1516E+00  0.1781E+02
  36.112  0.1536E+00  0.1782E+02
  36.122  0.1555E+00  0.1782E+02
  36.132  0.1574E+00  0.1782E+02
  36.142  0.1592E+00  0.1782E+02
  36.152  0.1610E+00  0.1782E+02
  36.162  0.1627E+00  0.1782E+02
  36.172  0.1644E+00  0.1783E+02
  36.182  0.1661E+00  0.1783E+02
  36.192  0.1677E+00  0.1783E+02
  36.202  0.1692E+00  0.1783E+02
  36.212  0.1707E+00  0.1783E+02
  36.222  0.1721E+00  0.1783E+02
  36.232  0.1735E+00  0.1784E+02
  36.242  0.1749E+00  0.1784E+02
  36.252  0.1761E+00  0.1784E+02
  36.262  0.1774E+00  0.1784E+02
  36.272  0.1785E+00  0.1784E+02
  36.282  0.1796E+00  0.1784E+02
  36.292  0.1806E+00  0.1785E+02
  36.302  0.1816E+00  0.1785E+02
  36.312  0.1825E+00  0.1785E+02
  36.322  0.1834E+00  0.1785E+02
  36.332  0.1842E+00  0.1785E+02
  36.342  0.1849E+00  0.1786E+02
  36.352  0.1856E+00  0.1786E+02
  36.362  0.1862E+00  0.1786E+02
  36.372  0.1867E+00  0.1786E+02
  36.382  0.1872E+00  0.1786E+02
  36.392  0.1876E+00  0.1786E+02
  36.402  0.1879E+00  0.1787E+02
  36.412  0.1882E+00  0.1787E+02
  36.422  0.1884E+00  0.1787E+02
  36.432  0.1885E+00  0.1787E+02
  36.442  0.1886E+00  0.1787E+02
  36.452  0.1886E+00  0.1788E+02
  36.462  0.1886E+00  0.1788E+02
  36.472  0.1884E+00  0.1788E+02
  36.482  0.1883E+00  0.1788E+02
  36.492  0.1880E+00  0.1788E+02
  36.502  0.1877E+00  0.1789E+02
  36.512  0.1873E+00  0.1789E+02
  36.522  0.1869E+00  0.1789E+02
  36.532  0.1864E+00  0.1789E+02
  36.542  0.1858E+00  0.1789E+02
  36.552  0.1852E+00  0.1789E+02
  36.562  0.1845E+00  0.1790E+02
  36.572  0.1838E+00  0.1790E+02
  36.582  0.1829E+00  0.1790E+02
  36.592  0.1821E+00  0.1790E+02
  36.602  0.1812E+00  0.1790E+02
  36.612  0.1802E+00  0.1791E+02
  36.622  0.1791E+00  0.1791E+02
  36.632  0.1780E+00  0.1791E+02
  36.642  0.1769E+00  0.1791E+02
  36.652  0.1757E+00  0.1791E+02
  36.662  0.1744E+00  0.1791E+02
  36.672  0.1731E+00  0.1792E+02
  36.682  0.1717E+00  0.1792E+02
  36.692  0.1703E+00  0.1792E+02
  36.702  0.1689E+00  0.1792E+02
  36.712  0.1674E+00  0.1792E+02
  36.722  0.1658E+00  0.1792E+02
  36.732  0.1642E+00  0.1793E+02
  36.742  0.1626E+00  0.1793E+02
  36.752  0.1609E+00  0.1793E+02
  36.762  0.1592E+00  0.1793E+02
  36.772  0.1574E+00  0.1793E+02
  36.782  0.1556E+00  0.1793E+02
  36.792  0.1538E+00  0.1794E+02
  36.802  0.1519E+00  0.1794E+02
  36.812  0.1500E+00  0.1794E+02
  36.822  0.1481E+00  0.1794E+02
  36.832  0.1461E+00  0.1794E+02
  36.842  0.1441E+00  0.1794E+02
  36.852  0.1421E+00  0.1794E+02
  36.862  0.1401E+00  0.1795E+02
  36.872  0.1380E+00  0.1795E+02
  36.882  0.1359E+00  0.1795E+02
  36.892  0.1338E+00  0.1795E+02
  36.902  0.1317E+00  0.1795E+02
  36.912  0.1296E+00  0.1795E+02
  36.922  0.1275E+00  0.1795E+02
  36.932  0.1253E+00  0.1796E+02
  36.942  0.1231E+00  0.1796E+02
  36.952  0.1210E+00  0.1796E+02
  36.962  0.1188E+00  0.1796E+02
  36.972  0.1166E+00  0.1796E+02
  36.982  0.1144E+00  0.1796E+02
  36.992  0.1123E+00  0.1796E+02
  37.002  0.1101E+00  0.1796E+02
  37.012  0.1079E+00  0.1796E+02
  37.022  0.1057E+00  0.1797E+02
  37.032  0.1036E+00  0.1797E+02
  37.042  0.1014E+00  0.1797E+02
  37.052  0.9925E-01  0.1797E+02
  37.062  0.9711E-01  0.1797E+02
  37.072  0.9498E-01  0.1797E+02
  37.082  0.9287E-01  0.1797E+02
  37.092  0.9077E-01  0.1797E+02
  37.102  0.8868E-01  0.1797E+02
  37.112  0.8661E-01  0.1797E+02
  37.122  0.8456E-01  0.1797E+02
  37.132  0.8253E-01  0.1798E+02
  37.142  0.8052E-01  0.1798E+02
  37.152  0.7854E-01  0.1798E+02
  37.162  0.7657E-01  0.1798E+02
  37.172  0.7463E-01  0.1798E+02
  37.182  0.7271E-01  0.1798E+02
  37.192  0.7081E-01  0.1798E+02
  37.202  0.6895E-01  0.1798E+02
  37.212  0.6710E-01  0.1798E+02
  37.222  0.6529E-01  0.1798E+02
  37.232  0.6350E-01  0.1798E+02
  37.242  0.6174E-01  0.1798E+02
  37.252  0.6001E-01  0.1798E+02
  37.262  0.5831E-01  0.1798E+02
  37.272  0.5664E-01  0.1799E+02
  37.282  0.5500E-01  0.1799E+02
  37.292  0.5339E-01  0.1799E+02
  37.302  0.5180E-01  0.1799E+02
  37.312  0.5025E-01  0.1799E+02
  37.322  0.4873E-01  0.1799E+02
  37.332  0.4724E-01  0.1799E+02
  37.342  0.4578E-01  0.1799E+02
  37.352  0.4435E-01  0.1799E+02
  37.362  0.4295E-01  0.1799E+02
  37.372  0.4158E-01  0.1799E+02
  37.382  0.4025E-01  0.1799E+02
  37.392  0.3894E-01  0.1799E+02
  37.402  0.3766E-01  0.1799E+02
  37.412  0.3641E-01  0.1799E+02
  37.422  0.3520E-01  0.1799E+02
  37.432  0.3401E-01  0.1799E+02
  37.442  0.3285E-01  0.1799E+02
  37.452  0.3172E-01  0.1799E+02
  37.462  0.3062E-01  0.1799E+02
  37.472  0.2955E-01  0.1799E+02
  37.482  0.2850E-01  0.1799E+02
  37.492  0.2749E-01  0.1799E+02
  37.502  0.2650E-01  0.1799E+02
  37.512  0.2553E-01  0.1799E+02
  37.522  0.2460E-01  0.1799E+02
  37.532  0.2369E-01  0.1799E+02
  37.542  0.2280E-01  0.1800E+02
  37.552  0.2195E-01  0.1800E+02
  37.562  0.2111E-01  0.1800E+02
  37.572  0.2030E-01  0.1800E+02
  37.582  0.1952E-01  0.1800E+02
  37.592  0.1876E-01  0.1800E+02
  37.602  0.1802E-01  0.1800E+02
  37.612  0.1730E-01  0.1800E+02
  37.622  0.1661E-01  0.1800E+02
  37.632  0.1594E-01  0.1800E+02
  37.642  0.1529E-01  0.1800E+02
  37.652  0.1466E-01  0.1800E+02
  37.662  0.1405E-01  0.1800E+02
  37.672  0.1346E-01  0.1800E+02
  37.682  0.1289E-01  0.1800E+02
  37.692  0.1234E-01  0.1800E+02
  37.702  0.1181E-01  0.1800E+02
  37.712  0.1130E-01  0.1800E+02
  37.722  0.1080E-01  0.1800E+02
  37.732  0.1032E-01  0.1800E+02
  37.742  0.9862E-02  0.1800E+02
  37.752  0.9418E-02  0.1800E+02
  37.762  0.8990E-02  0.1800E+02
  37.772  0.8578E-02  0.1800E+02
  37.782  0.8181E-02  0.1800E+02
  37.792  0.7799E-02  0.1800E+02
  37.802  0.7431E-02  0.1800E+02
  37.812  0.7078E-02  0.1800E+02
  37.822  0.6738E-02  0.1800E+02
  37.832  0.6412E-02  0.1800E+02
  37.842  0.6099E-02  0.1800E+02
  37.852  0.5798E-02  0.1800E+02
  37.862  0.5509E-02  0.1800E+02
  37.872  0.5233E-02  0.1800E+02
  37.882  0.4967E-02  0.1800E+02
  37.892  0.4713E-02  0.1800E+02
  37.902  0.4470E-02  0.1800E+02
  37.912  0.4237E-02  0.1800E+02
  37.922  0.4015E-02  0.1800E+02
  37.932  0.3802E-02  0.1800E+02
  37.942  0.3598E-02  0.1800E+02
  37.952  0.3404E-02  0.1800E+02
  37.962  0.3219E-02  0.1800E+02
  37.972  0.3042E-02  0.1800E+02
  37.982  0.2873E-02  0.1800E+02
  37.992  0.2712E-02  0.1800E+02
  38.002  0.2559E-02  0.1800E+02
  38.012  0.2413E-02  0.1800E+02
  38.022  0.2274E-02  0.1800E+02
  38.032  0.2143E-02  0.1800E+02
  38.042  0.2017E-02  0.1800E+02
  38.052  0.1898E-02  0.1800E+02
  38.062  0.1785E-02  0.1800E+02
  38.072  0.1678E-02  0.1800E+02
  38.082  0.1576E-02  0.1800E+02
  38.092  0.1480E-02  0.1800E+02
  38.102  0.1389E-02  0.1800E+02
  38.112  0.1302E-02  0.1800E+02
  38.122  0.1220E-02  0.1800E+02
  38.132  0.1143E-02  0.1800E+02
  38.142  0.1070E-02  0.1800E+02
  38.152  0.1001E-02  0.1800E+02
  38.162  0.9364E-03  0.1800E+02
  38.172  0.8751E-03  0.1800E+02
  38.182  0.8174E-03  0.1800E+02
  38.192  0.7629E-03  0.1800E+02
  38.202  0.7117E-03  0.1800E+02
  38.212  0.6636E-03  0.1800E+02
  38.222  0.6183E-03  0.1800E+02
  38.232  0.5758E-03  0.1800E+02
  38.242  0.5358E-03  0.1800E+02
  38.252  0.4984E-03  0.1800E+02
  38.262  0.4632E-03  0.1800E+02
  38.272  0.4303E-03  0.1800E+02
  38.282  0.3995E-03  0.1800E+02
  38.292  0.3707E-03  0.1800E+02
  38.302  0.3437E-03  0.1800E+02
  38.312  0.3185E-03  0.1800E+02
  38.322  0.2949E-03  0.1800E+02
  38.332  0.2730E-03  0.1800E+02
  38.342  0.2525E-03  0.1800E+02
  38.352  0.2334E-03  0.1800E+02
  38.362  0.2156E-03  0.1800E+02
  38.372  0.1990E-03  0.1800E+02
  38.382  0.1836E-03  0.1800E+02
  38.392  0.1693E-03  0.1800E+02
  38.402  0.1560E-03  0.1800E+02
  38.412  0.1437E-03  0.1800E+02
  38.422  0.1322E-03  0.1800E+02
  38.432  0.1216E-03  0.1800E+02
  38.442  0.1118E-03  0.1800E+02
  38.452  0.1027E-03  0.1800E+02
  38.462  0.9424E-04  0.1800E+02
  38.472  0.8645E-04  0.1800E+02
  38.482  0.7925E-04  0.1800E+02
  38.492  0.7261E-04  0.1800E+02
  38.502  0.6648E-04  0.1800E+02
  38.512  0.6083E-04  0.1800E+02
  38.522  0.5562E-04  0.1800E+02
  38.532  0.5082E-04  0.1800E+02
  38.542  0.4641E-04  0.1800E+02
  38.552  0.4236E-04  0.1800E+02
  38.562  0.3863E-04  0.1800E+02
  38.572  0.3521E-04  0.1800E+02
  38.582  0.3207E-04  0.1800E+02
  38.592  0.2919E-04  0.1800E+02
  38.602  0.2655E-04  0.1800E+02
  38.612  0.2414E-04  0.1800E+02
  38.622  0.2193E-04  0.1800E+02
  38.632  0.1991E-04  0.1800E+02
  38.642  0.1806E-04  0.1800E+02
  38.652  0.1638E-04  0.1800E+02
  38.662  0.1484E-04  0.1800E+02
  38.672  0.1344E-04  0.1800E+02
  38.682  0.1216E-04  0.1800E+02
  38.692  0.1099E-04  0.1800E+02
  38.702  0.9935E-05  0.1800E+02
  38.712  0.8973E-05  0.1800E+02
  38.722  0.8098E-05  0.1800E+02
  38.732  0.7303E-05  0.1800E+02
  38.742  0.6582E-05  0.1800E+02
  38.752  0.5929E-05  0.1800E+02
  38.762  0.5337E-05  0.1800E+02
  38.772  0.4800E-05  0.1800E+02
  38.782  0.4315E-05  0.1800E+02
  38.792  0.3876E-05  0.1800E+02
  38.802  0.3480E-05  0.1800E+02
  38.812  0.3122E-05  0.1800E+02
  38.822  0.2799E-05  0.1800E+02
  38.832  0.2508E-05  0.1800E+02
